title:parker new nback 1, start timestamp:1606521675.819949, stop timestamp:1606521732.464127, headset type:EPOCPLUS, headset serial:4A2C14BBFA, headset firmware:634, channels:120, sampling rate:eeg_128;mot_32;pow_8, samples:7267      , version:2.0
Timestamp,EEG.Counter,EEG.Interpolated,EEG.AF3,EEG.F7,EEG.F3,EEG.FC5,EEG.T7,EEG.P7,EEG.O1,EEG.O2,EEG.P8,EEG.T8,EEG.FC6,EEG.F4,EEG.F8,EEG.AF4,EEG.RawCq,EEG.Battery,MarkerIndex,MarkerType,MarkerValueInt,EEG.MarkerHardware,CQ.AF3,CQ.F7,CQ.F3,CQ.FC5,CQ.T7,CQ.P7,CQ.O1,CQ.O2,CQ.P8,CQ.T8,CQ.FC6,CQ.F4,CQ.F8,CQ.AF4,CQ.Overall,MOT.CounterMems,MOT.InterpolatedMems,MOT.Q0,MOT.Q1,MOT.Q2,MOT.Q3,MOT.AccX,MOT.AccY,MOT.AccZ,MOT.MagX,MOT.MagY,MOT.MagZ,POW.AF3.Theta,POW.AF3.Alpha,POW.AF3.BetaL,POW.AF3.BetaH,POW.AF3.Gamma,POW.F7.Theta,POW.F7.Alpha,POW.F7.BetaL,POW.F7.BetaH,POW.F7.Gamma,POW.F3.Theta,POW.F3.Alpha,POW.F3.BetaL,POW.F3.BetaH,POW.F3.Gamma,POW.FC5.Theta,POW.FC5.Alpha,POW.FC5.BetaL,POW.FC5.BetaH,POW.FC5.Gamma,POW.T7.Theta,POW.T7.Alpha,POW.T7.BetaL,POW.T7.BetaH,POW.T7.Gamma,POW.P7.Theta,POW.P7.Alpha,POW.P7.BetaL,POW.P7.BetaH,POW.P7.Gamma,POW.O1.Theta,POW.O1.Alpha,POW.O1.BetaL,POW.O1.BetaH,POW.O1.Gamma,POW.O2.Theta,POW.O2.Alpha,POW.O2.BetaL,POW.O2.BetaH,POW.O2.Gamma,POW.P8.Theta,POW.P8.Alpha,POW.P8.BetaL,POW.P8.BetaH,POW.P8.Gamma,POW.T8.Theta,POW.T8.Alpha,POW.T8.BetaL,POW.T8.BetaH,POW.T8.Gamma,POW.FC6.Theta,POW.FC6.Alpha,POW.FC6.BetaL,POW.FC6.BetaH,POW.FC6.Gamma,POW.F4.Theta,POW.F4.Alpha,POW.F4.BetaL,POW.F4.BetaH,POW.F4.Gamma,POW.F8.Theta,POW.F8.Alpha,POW.F8.BetaL,POW.F8.BetaH,POW.F8.Gamma,POW.AF4.Theta,POW.AF4.Alpha,POW.AF4.BetaL,POW.AF4.BetaH,POW.AF4.Gamma
1606521675.819949,106.000000,0.000000,4193.717773,4183.717773,4214.871582,4285.769043,4394.615234,4200.512695,4222.820313,4217.436035,4198.846191,4174.230957,4261.922852,4187.436035,4485.000000,4180.641113,3552.000000,3.000000,,,,0.000000,4.000000,4.000000,4.000000,4.000000,4.000000,4.000000,4.000000,4.000000,4.000000,4.000000,4.000000,4.000000,4.000000,4.000000,100.000000,,,,,,,,,,,,,,,,,,,,,,,,,,,,,,,,,,,,,,,,,,,,,,,,,,,,,,,,,,,,,,,,,,,,,,,,,,,,,,,,,,
1606521675.827945,107.000000,0.000000,4201.794922,4174.615234,4227.820313,4295.897461,4409.743652,4203.077148,4225.256348,4226.282227,4208.333496,4191.666504,4270.769043,4200.512695,4501.794922,4192.948730,3542.000000,3.000000,,,,0.000000,4.000000,4.000000,4.000000,4.000000,4.000000,4.000000,4.000000,4.000000,4.000000,4.000000,4.000000,4.000000,4.000000,4.000000,100.000000,,,,,,,,,,,,,,,,,,,,,,,,,,,,,,,,,,,,,,,,,,,,,,,,,,,,,,,,,,,,,,,,,,,,,,,,,,,,,,,,,,
1606521675.835841,108.000000,0.000000,4206.282227,4177.436035,4230.769043,4293.846191,4495.384766,4220.641113,4226.538574,4231.922852,4218.333496,4215.512695,4278.205078,4205.641113,4510.897461,4220.256348,3491.000000,3.000000,,,,0.000000,4.000000,4.000000,4.000000,4.000000,4.000000,4.000000,4.000000,4.000000,4.000000,4.000000,4.000000,4.000000,4.000000,4.000000,100.000000,27.000000,0.000000,0.699861,-0.353821,-0.600525,-0.156128,0.990250,-0.296880,0.029297,-35.440605,-119.331657,10.916305,,,,,,,,,,,,,,,,,,,,,,,,,,,,,,,,,,,,,,,,,,,,,,,,,,,,,,,,,,,,,,,,,,,,,,
1606521675.843536,109.000000,0.000000,4198.205078,4185.000000,4215.641113,4286.025879,4498.333496,4218.717773,4219.102539,4220.128418,4215.512695,4210.000000,4266.410156,4198.205078,4503.974121,4219.230957,3210.000000,3.000000,,,,0.000000,4.000000,4.000000,4.000000,4.000000,4.000000,4.000000,4.000000,4.000000,4.000000,4.000000,4.000000,4.000000,4.000000,4.000000,100.000000,,,,,,,,,,,,,,,,,,,,,,,,,,,,,,,,,,,,,,,,,,,,,,,,,,,,,,,,,,,,,,,,,,,,,,,,,,,,,,,,,,
1606521675.851232,110.000000,0.000000,4201.153809,4192.307617,4222.692383,4297.179688,4472.051270,4217.179688,4222.692383,4219.743652,4211.794922,4200.641113,4260.128418,4201.025879,4506.922852,4211.922852,3552.000000,3.000000,,,,0.000000,4.000000,4.000000,4.000000,4.000000,4.000000,4.000000,4.000000,4.000000,4.000000,4.000000,4.000000,4.000000,4.000000,4.000000,100.000000,,,,,,,,,,,,,,,,,,,,,,,,,,,,,,,,,,,,,,,,,,,,,,,,,,,,,,,,,,,,,,,,,,,,,,,,,,,,,,,,,,
1606521675.859028,111.000000,0.000000,4214.743652,4202.948730,4244.743652,4322.307617,4505.897461,4234.871582,4244.230957,4241.282227,4215.128418,4214.102539,4277.436035,4215.256348,4525.641113,4227.307617,3542.000000,3.000000,,,,0.000000,4.000000,4.000000,4.000000,4.000000,4.000000,4.000000,4.000000,4.000000,4.000000,4.000000,4.000000,4.000000,4.000000,4.000000,100.000000,,,,,,,,,,,,,,,,,,,,,,,,,,,,,,,,,,,,,,,,,,,,,,,,,,,,,,,,,,,,,,,,,,,,,,,,,,,,,,,,,,
1606521675.866924,112.000000,0.000000,4217.948730,4208.846191,4241.410156,4322.948730,4536.282227,4235.769043,4241.922852,4241.025879,4215.641113,4232.051270,4289.358887,4220.000000,4534.487305,4230.769043,3491.000000,3.000000,,,,0.000000,4.000000,4.000000,4.000000,4.000000,4.000000,4.000000,4.000000,4.000000,4.000000,4.000000,4.000000,4.000000,4.000000,4.000000,100.000000,28.000000,0.000000,0.698949,-0.351685,-0.604248,-0.150574,0.972671,-0.297368,0.016114,-35.440605,-119.331657,10.467689,,,,,,,,,,,,,,,,,,,,,,,,,,,,,,,,,,,,,,,,,,,,,,,,,,,,,,,,,,,,,,,,,,,,,,
1606521675.874820,113.000000,0.000000,4214.230957,4208.974121,4227.307617,4312.179688,4525.641113,4217.436035,4217.307617,4215.769043,4213.717773,4233.461426,4288.205078,4213.846191,4534.487305,4221.794922,3210.000000,3.000000,,,,0.000000,4.000000,4.000000,4.000000,4.000000,4.000000,4.000000,4.000000,4.000000,4.000000,4.000000,4.000000,4.000000,4.000000,4.000000,100.000000,,,,,,,,,,,,,,,,,,,,,,,,,,,,,,,,,,,,,,,,,,,,,,,,,,,,,,,,,,,,,,,,,,,,,,,,,,,,,,,,,,
1606521675.882715,114.000000,0.000000,4220.512695,4223.974121,4233.461426,4320.641113,4534.871582,4217.948730,4219.358887,4210.897461,4215.769043,4242.692383,4293.974121,4214.743652,4549.487305,4228.461426,3552.000000,3.000000,,,,0.000000,4.000000,4.000000,4.000000,4.000000,4.000000,4.000000,4.000000,4.000000,4.000000,4.000000,4.000000,4.000000,4.000000,4.000000,100.000000,,,,,,,,,,,,,,,,,,,,,,,,,,,,,,,,,,,,,,,,,,,,,,,,,,,,,,,,,,,,,,,,,,,,,,,,,,,,,,,,,,
1606521675.890711,115.000000,0.000000,4232.436035,4238.077148,4246.153809,4338.333496,4561.794922,4235.641113,4234.358887,4228.333496,4221.282227,4272.948730,4303.333496,4228.333496,4572.307617,4239.102539,3542.000000,3.000000,,,,0.000000,4.000000,4.000000,4.000000,4.000000,4.000000,4.000000,4.000000,4.000000,4.000000,4.000000,4.000000,4.000000,4.000000,4.000000,100.000000,,,,,,,,,,,,,,,,,,,,,,,,,,,,,,,,,,,,,,,,,,,,,,,,,,,,,,,,,,,,,,,,,,,,,,,,,,,,,,,,,,
1606521675.898607,116.000000,0.000000,4235.256348,4221.666504,4251.153809,4339.871582,4551.153809,4231.922852,4232.692383,4233.717773,4222.820313,4271.794922,4301.153809,4236.538574,4574.230957,4237.179688,3491.000000,3.000000,,,,0.000000,4.000000,4.000000,4.000000,4.000000,4.000000,4.000000,4.000000,4.000000,4.000000,4.000000,4.000000,4.000000,4.000000,4.000000,100.000000,29.000000,0.000000,0.697847,-0.351685,-0.606567,-0.146301,0.909194,-0.316899,0.012696,-35.889221,-119.780273,7.775998,,,,,,,,,,,,,,,,,,,,,,,,,,,,,,,,,,,,,,,,,,,,,,,,,,,,,,,,,,,,,,,,,,,,,,
1606521675.906502,117.000000,0.000000,4233.077148,4211.666504,4250.384766,4333.717773,4536.538574,4216.538574,4231.794922,4228.077148,4221.794922,4228.461426,4293.717773,4231.666504,4565.641113,4235.128418,3210.000000,3.000000,,,,0.000000,4.000000,4.000000,4.000000,4.000000,4.000000,4.000000,4.000000,4.000000,4.000000,4.000000,4.000000,4.000000,4.000000,4.000000,100.000000,,,,,,,,,,,,,,,,,,,,,,,,,,,,,,,,,,,,,,,,,,,,,,,,,,,,,,,,,,,,,,,,,,,,,,,,,,,,,,,,,,
1606521675.914398,118.000000,0.000000,4224.358887,4229.487305,4238.974121,4330.897461,4571.282227,4219.743652,4238.333496,4221.538574,4219.871582,4212.051270,4284.487305,4217.948730,4557.948730,4224.743652,3552.000000,3.000000,,,,0.000000,4.000000,4.000000,4.000000,4.000000,4.000000,4.000000,4.000000,4.000000,4.000000,4.000000,4.000000,4.000000,4.000000,4.000000,100.000000,,,,,,,,,,,,,5.010180,2.994810,1.551576,0.864239,1.298402,17.807673,6.215887,2.078611,1.633372,2.171740,2.763561,0.935255,1.229181,0.947403,1.458833,6.244314,1.533970,2.252939,1.435778,1.758821,5.975530,3.366051,9.692662,25.916372,27.405912,2.675255,1.455150,1.544467,2.041424,1.764289,1.628108,1.402563,0.924030,0.829158,1.167614,2.366170,2.571793,1.175061,1.095043,1.302232,1.766713,1.770306,1.194108,1.397986,1.068965,1.840315,3.175753,6.157487,8.922001,7.700089,4.824431,1.923422,2.605829,1.307985,2.007032,3.876835,1.969597,1.657279,1.103764,1.822390,13.917477,4.983940,2.082821,1.696961,2.023704,13.223186,4.987593,1.908210,1.068960,1.465190
1606521675.922394,119.000000,0.000000,4200.256348,4231.025879,4216.666504,4328.077148,4611.153809,4222.179688,4223.974121,4206.538574,4207.051270,4237.563965,4264.615234,4198.717773,4530.000000,4190.512695,3542.000000,3.000000,,,,0.000000,4.000000,4.000000,4.000000,4.000000,4.000000,4.000000,4.000000,4.000000,4.000000,4.000000,4.000000,4.000000,4.000000,4.000000,100.000000,,,,,,,,,,,,,,,,,,,,,,,,,,,,,,,,,,,,,,,,,,,,,,,,,,,,,,,,,,,,,,,,,,,,,,,,,,,,,,,,,,
1606521675.930289,120.000000,0.000000,4173.205078,4213.717773,4195.769043,4326.794922,4608.717773,4212.820313,4199.102539,4187.820313,4201.410156,4236.153809,4236.922852,4174.358887,4486.922852,4156.666504,3491.000000,3.000000,,,,0.000000,4.000000,4.000000,4.000000,4.000000,4.000000,4.000000,4.000000,4.000000,4.000000,4.000000,4.000000,4.000000,4.000000,4.000000,100.000000,30.000000,0.000000,0.696806,-0.357971,-0.603455,-0.148865,0.915053,-0.325689,0.026368,-35.889221,-119.032578,9.719997,,,,,,,,,,,,,,,,,,,,,,,,,,,,,,,,,,,,,,,,,,,,,,,,,,,,,,,,,,,,,,,,,,,,,,
1606521675.937985,121.000000,0.000000,4155.897461,4211.538574,4183.589844,4325.897461,4608.205078,4212.820313,4203.717773,4184.487305,4203.333496,4211.666504,4217.051270,4155.897461,4463.846191,4137.179688,3210.000000,3.000000,,,,0.000000,4.000000,4.000000,4.000000,4.000000,4.000000,4.000000,4.000000,4.000000,4.000000,4.000000,4.000000,4.000000,4.000000,4.000000,100.000000,,,,,,,,,,,,,,,,,,,,,,,,,,,,,,,,,,,,,,,,,,,,,,,,,,,,,,,,,,,,,,,,,,,,,,,,,,,,,,,,,,
1606521675.945680,122.000000,0.000000,4141.282227,4207.948730,4171.538574,4330.512695,4633.974121,4217.563965,4220.000000,4188.333496,4193.846191,4211.025879,4205.769043,4147.307617,4456.666504,4117.051270,3552.000000,3.000000,,,,0.000000,4.000000,4.000000,4.000000,4.000000,4.000000,4.000000,4.000000,4.000000,4.000000,4.000000,4.000000,4.000000,4.000000,4.000000,100.000000,,,,,,,,,,,,,,,,,,,,,,,,,,,,,,,,,,,,,,,,,,,,,,,,,,,,,,,,,,,,,,,,,,,,,,,,,,,,,,,,,,
1606521675.953276,123.000000,0.000000,4133.205078,4198.205078,4163.717773,4344.871582,4658.077148,4210.769043,4206.794922,4184.615234,4187.307617,4218.589844,4200.897461,4142.436035,4455.897461,4101.153809,3542.000000,3.000000,,,,0.000000,4.000000,4.000000,4.000000,4.000000,4.000000,4.000000,4.000000,4.000000,4.000000,4.000000,4.000000,4.000000,4.000000,4.000000,100.000000,,,,,,,,,,,,,,,,,,,,,,,,,,,,,,,,,,,,,,,,,,,,,,,,,,,,,,,,,,,,,,,,,,,,,,,,,,,,,,,,,,
1606521675.960972,124.000000,0.000000,4135.897461,4202.307617,4163.846191,4359.743652,4669.487305,4202.307617,4186.282227,4180.641113,4189.487305,4199.743652,4200.000000,4139.615234,4459.102539,4101.794922,3491.000000,3.000000,,,,0.000000,4.000000,4.000000,4.000000,4.000000,4.000000,4.000000,4.000000,4.000000,4.000000,4.000000,4.000000,4.000000,4.000000,4.000000,100.000000,31.000000,0.000000,0.695832,-0.367493,-0.596985,-0.156128,1.005875,-0.348150,0.017090,-36.337833,-120.827042,8.523689,,,,,,,,,,,,,,,,,,,,,,,,,,,,,,,,,,,,,,,,,,,,,,,,,,,,,,,,,,,,,,,,,,,,,,
1606521675.968668,125.000000,0.000000,4136.538574,4204.358887,4165.641113,4374.230957,4671.538574,4197.436035,4190.256348,4180.897461,4184.487305,4176.666504,4196.666504,4135.641113,4459.102539,4103.717773,3210.000000,3.000000,,,,0.000000,4.000000,4.000000,4.000000,4.000000,4.000000,4.000000,4.000000,4.000000,4.000000,4.000000,4.000000,4.000000,4.000000,4.000000,100.000000,,,,,,,,,,,,,,,,,,,,,,,,,,,,,,,,,,,,,,,,,,,,,,,,,,,,,,,,,,,,,,,,,,,,,,,,,,,,,,,,,,
1606521675.976564,126.000000,0.000000,4136.410156,4202.307617,4176.922852,4401.794922,4684.102539,4198.846191,4203.717773,4184.743652,4184.743652,4208.589844,4198.846191,4143.461426,4471.666504,4104.230957,3552.000000,3.000000,,,,0.000000,4.000000,4.000000,4.000000,4.000000,4.000000,4.000000,4.000000,4.000000,4.000000,4.000000,4.000000,4.000000,4.000000,4.000000,100.000000,,,,,,,,,,,,,,,,,,,,,,,,,,,,,,,,,,,,,,,,,,,,,,,,,,,,,,,,,,,,,,,,,,,,,,,,,,,,,,,,,,
1606521675.984359,127.000000,0.000000,4141.922852,4201.153809,4184.102539,4433.333496,4705.128418,4212.692383,4205.384766,4184.102539,4188.846191,4232.307617,4200.769043,4153.461426,4490.769043,4105.641113,52.000000,3.000000,,,,0.000000,4.000000,4.000000,4.000000,4.000000,4.000000,4.000000,4.000000,4.000000,4.000000,4.000000,4.000000,4.000000,4.000000,4.000000,100.000000,,,,,,,,,,,,,,,,,,,,,,,,,,,,,,,,,,,,,,,,,,,,,,,,,,,,,,,,,,,,,,,,,,,,,,,,,,,,,,,,,,
1606521675.992155,0.000000,0.000000,4136.666504,4194.102539,4172.179688,4449.102539,4704.102539,4205.641113,4192.179688,4170.000000,4177.948730,4193.077148,4187.563965,4143.077148,4494.871582,4095.641113,3414.000000,3.000000,,,,0.000000,4.000000,4.000000,4.000000,4.000000,4.000000,4.000000,4.000000,4.000000,4.000000,4.000000,4.000000,4.000000,4.000000,4.000000,100.000000,0.000000,0.000000,0.694529,-0.374390,-0.593384,-0.159241,0.967300,-0.327642,0.022461,-35.889221,-120.827042,9.719997,,,,,,,,,,,,,,,,,,,,,,,,,,,,,,,,,,,,,,,,,,,,,,,,,,,,,,,,,,,,,,,,,,,,,,
1606521675.999851,1.000000,0.000000,4134.871582,4203.205078,4170.897461,4476.666504,4697.051270,4186.153809,4188.461426,4168.846191,4182.051270,4211.153809,4188.077148,4139.743652,4520.256348,4095.128174,3501.000000,3.000000,,,,0.000000,4.000000,4.000000,4.000000,4.000000,4.000000,4.000000,4.000000,4.000000,4.000000,4.000000,4.000000,4.000000,4.000000,4.000000,100.000000,,,,,,,,,,,,,,,,,,,,,,,,,,,,,,,,,,,,,,,,,,,,,,,,,,,,,,,,,,,,,,,,,,,,,,,,,,,,,,,,,,
1606521676.007747,2.000000,0.000000,4153.077148,4234.487305,4190.897461,4523.974121,4708.846191,4183.846191,4205.256348,4193.077148,4205.897461,4279.743652,4211.922852,4157.307617,4579.871582,4114.487305,3369.000000,3.000000,,,,0.000000,4.000000,4.000000,4.000000,4.000000,4.000000,4.000000,4.000000,4.000000,4.000000,4.000000,4.000000,4.000000,4.000000,4.000000,100.000000,,,,,,,,,,,,,,,,,,,,,,,,,,,,,,,,,,,,,,,,,,,,,,,,,,,,,,,,,,,,,,,,,,,,,,,,,,,,,,,,,,
1606521676.015742,3.000000,0.000000,4153.717773,4247.051270,4190.128418,4555.641113,4710.897461,4177.307617,4201.922852,4194.871582,4192.948730,4256.025879,4213.846191,4157.307617,4609.743652,4115.128418,3583.000000,3.000000,,,,0.000000,4.000000,4.000000,4.000000,4.000000,4.000000,4.000000,4.000000,4.000000,4.000000,4.000000,4.000000,4.000000,4.000000,4.000000,100.000000,,,,,,,,,,,,,,,,,,,,,,,,,,,,,,,,,,,,,,,,,,,,,,,,,,,,,,,,,,,,,,,,,,,,,,,,,,,,,,,,,,
1606521676.023638,4.000000,0.000000,4128.205078,4232.692383,4164.615234,4561.153809,4681.666504,4159.871582,4173.205078,4170.641113,4155.256348,4194.230957,4185.512695,4137.436035,4592.948730,4090.641113,3594.000000,3.000000,,,,0.000000,4.000000,4.000000,4.000000,4.000000,4.000000,4.000000,4.000000,4.000000,4.000000,4.000000,4.000000,4.000000,4.000000,4.000000,100.000000,1.000000,0.000000,0.693989,-0.376038,-0.592957,-0.159302,0.958999,-0.356451,0.034180,-35.440605,-120.827042,10.467689,,,,,,,,,,,,,,,,,,,,,,,,,,,,,,,,,,,,,,,,,,,,,,,,,,,,,,,,,,,,,,,,,,,,,,
1606521676.031334,5.000000,0.000000,4114.487305,4227.563965,4149.102539,4571.666504,4654.743652,4149.615234,4161.666504,4162.563965,4152.307617,4206.794922,4166.410156,4126.282227,4583.717773,4076.410156,3502.000000,3.000000,,,,0.000000,4.000000,4.000000,4.000000,4.000000,4.000000,4.000000,4.000000,4.000000,4.000000,4.000000,4.000000,4.000000,4.000000,4.000000,100.000000,,,,,,,,,,,,,,,,,,,,,,,,,,,,,,,,,,,,,,,,,,,,,,,,,,,,,,,,,,,,,,,,,,,,,,,,,,,,,,,,,,
1606521676.039030,6.000000,0.000000,4118.205078,4243.589844,4150.897461,4611.153809,4652.692383,4141.794922,4163.717773,4160.641113,4171.282227,4217.692383,4169.487305,4124.615234,4605.128418,4078.076904,3481.000000,3.000000,,,,0.000000,4.000000,4.000000,4.000000,4.000000,4.000000,4.000000,4.000000,4.000000,4.000000,4.000000,4.000000,4.000000,4.000000,4.000000,100.000000,,,,,,,,,,,,,6.401201,3.147872,1.352322,0.882073,1.199354,19.420723,6.498061,1.940991,1.638638,1.948121,2.906762,0.780557,1.024634,0.874733,1.326939,5.754846,1.251389,2.013282,1.366665,1.634189,5.329475,2.853324,8.779205,25.735348,24.535177,2.426333,1.110686,1.048176,1.888295,1.570325,1.420131,1.251314,0.726424,0.702516,1.066540,2.198733,2.275143,1.102351,0.898807,1.189050,1.717758,1.568126,1.006250,1.041853,0.940599,2.002507,2.322799,5.521551,8.946402,7.799978,5.579882,1.642146,2.269146,1.173659,1.915974,4.201089,1.771706,1.310643,1.030878,1.703555,16.544249,5.049778,1.720889,1.586476,1.939206,15.908467,4.970603,1.610681,1.014201,1.342458
1606521676.046826,7.000000,0.000000,4113.461426,4252.307617,4151.666504,4643.589844,4651.922852,4130.641113,4145.000000,4142.436035,4160.256348,4194.871582,4174.743652,4123.333496,4626.538574,4069.487061,3345.000000,3.000000,,,,0.000000,4.000000,4.000000,4.000000,4.000000,4.000000,4.000000,4.000000,4.000000,4.000000,4.000000,4.000000,4.000000,4.000000,4.000000,100.000000,,,,,,,,,,,,,,,,,,,,,,,,,,,,,,,,,,,,,,,,,,,,,,,,,,,,,,,,,,,,,,,,,,,,,,,,,,,,,,,,,,
1606521676.054522,8.000000,0.000000,4107.051270,4251.282227,4145.000000,4662.563965,4635.256348,4131.538574,4132.051270,4131.922852,4135.128418,4196.410156,4171.922852,4122.051270,4630.384766,4056.281982,3221.000000,3.000000,,,,0.000000,4.000000,4.000000,4.000000,4.000000,4.000000,4.000000,4.000000,4.000000,4.000000,4.000000,4.000000,4.000000,4.000000,4.000000,100.000000,2.000000,0.000000,0.693394,-0.377563,-0.592896,-0.158508,0.972183,-0.338384,0.019043,-36.038757,-121.126114,9.121843,,,,,,,,,,,,,,,,,,,,,,,,,,,,,,,,,,,,,,,,,,,,,,,,,,,,,,,,,,,,,,,,,,,,,,
1606521676.062218,9.000000,0.000000,4125.384766,4283.205078,4162.307617,4718.589844,4644.871582,4149.487305,4161.794922,4151.922852,4147.307617,4216.922852,4190.384766,4136.666504,4652.436035,4073.461426,3579.000000,3.000000,,,,0.000000,4.000000,4.000000,4.000000,4.000000,4.000000,4.000000,4.000000,4.000000,4.000000,4.000000,4.000000,4.000000,4.000000,4.000000,100.000000,,,,,,,,,,,,,,,,,,,,,,,,,,,,,,,,,,,,,,,,,,,,,,,,,,,,,,,,,,,,,,,,,,,,,,,,,,,,,,,,,,
1606521676.069913,10.000000,0.000000,4150.641113,4331.282227,4196.922852,4781.794922,4667.820313,4170.000000,4189.358887,4171.282227,4179.358887,4244.871582,4225.897461,4163.974121,4694.615234,4100.384766,3553.000000,3.000000,,,,0.000000,4.000000,4.000000,4.000000,4.000000,4.000000,4.000000,4.000000,4.000000,4.000000,4.000000,4.000000,4.000000,4.000000,4.000000,100.000000,,,,,,,,,,,,,,,,,,,,,,,,,,,,,,,,,,,,,,,,,,,,,,,,,,,,,,,,,,,,,,,,,,,,,,,,,,,,,,,,,,
1606521676.077709,11.000000,0.000000,4157.051270,4340.384766,4204.230957,4807.051270,4655.000000,4182.179688,4184.871582,4171.153809,4186.922852,4259.743652,4229.871582,4172.436035,4715.641113,4096.666504,3564.000000,3.000000,,,,0.000000,4.000000,4.000000,4.000000,4.000000,4.000000,4.000000,4.000000,4.000000,4.000000,4.000000,4.000000,4.000000,4.000000,4.000000,100.000000,,,,,,,,,,,,,,,,,,,,,,,,,,,,,,,,,,,,,,,,,,,,,,,,,,,,,,,,,,,,,,,,,,,,,,,,,,,,,,,,,,
1606521676.085405,12.000000,0.000000,4152.051270,4340.512695,4197.820313,4840.000000,4646.922852,4183.974121,4187.948730,4176.922852,4180.897461,4255.000000,4216.282227,4164.358887,4722.692383,4090.512939,3514.000000,3.000000,,,,0.000000,4.000000,4.000000,4.000000,4.000000,4.000000,4.000000,4.000000,4.000000,4.000000,4.000000,4.000000,4.000000,4.000000,4.000000,100.000000,3.000000,0.000000,0.692869,-0.376099,-0.595276,-0.155334,0.942397,-0.310552,-0.006348,-36.487373,-121.873810,8.673228,,,,,,,,,,,,,,,,,,,,,,,,,,,,,,,,,,,,,,,,,,,,,,,,,,,,,,,,,,,,,,,,,,,,,,
1606521676.093101,13.000000,0.000000,4155.769043,4372.692383,4201.794922,4890.769043,4664.615234,4181.025879,4201.025879,4187.692383,4180.769043,4251.922852,4225.384766,4166.794922,4747.051270,4103.846191,3226.000000,3.000000,,,,0.000000,4.000000,4.000000,4.000000,4.000000,4.000000,4.000000,4.000000,4.000000,4.000000,4.000000,4.000000,4.000000,4.000000,4.000000,100.000000,,,,,,,,,,,,,,,,,,,,,,,,,,,,,,,,,,,,,,,,,,,,,,,,,,,,,,,,,,,,,,,,,,,,,,,,,,,,,,,,,,
1606521676.100997,14.000000,0.000000,4167.436035,4400.384766,4206.794922,4920.512695,4662.820313,4176.922852,4197.692383,4188.333496,4190.641113,4267.692383,4238.077148,4173.846191,4787.436035,4111.922852,3553.000000,3.000000,,,,0.000000,4.000000,4.000000,4.000000,4.000000,4.000000,4.000000,4.000000,4.000000,4.000000,4.000000,4.000000,4.000000,4.000000,4.000000,100.000000,,,,,,,,,,,,,,,,,,,,,,,,,,,,,,,,,,,,,,,,,,,,,,,,,,,,,,,,,,,,,,,,,,,,,,,,,,,,,,,,,,
1606521676.108992,15.000000,0.000000,4168.846191,4393.846191,4206.025879,4943.589844,4624.743652,4177.820313,4194.102539,4202.307617,4204.102539,4281.410156,4232.948730,4171.025879,4818.205078,4105.641113,3564.000000,3.000000,,,,0.000000,4.000000,4.000000,4.000000,4.000000,4.000000,4.000000,4.000000,4.000000,4.000000,4.000000,4.000000,4.000000,4.000000,4.000000,100.000000,,,,,,,,,,,,,,,,,,,,,,,,,,,,,,,,,,,,,,,,,,,,,,,,,,,,,,,,,,,,,,,,,,,,,,,,,,,,,,,,,,
1606521676.116888,16.000000,0.000000,4166.538574,4396.153809,4211.666504,4980.897461,4610.897461,4184.615234,4208.717773,4228.205078,4205.641113,4273.846191,4235.641113,4175.897461,4833.205078,4107.692383,0.000000,3.000000,,,,0.000000,4.000000,4.000000,4.000000,4.000000,4.000000,4.000000,4.000000,4.000000,4.000000,4.000000,4.000000,4.000000,4.000000,4.000000,100.000000,4.000000,0.000000,0.692962,-0.367615,-0.602783,-0.145996,0.939956,-0.334966,-0.040040,-36.337833,-121.275658,8.523689,,,,,,,,,,,,,,,,,,,,,,,,,,,,,,,,,,,,,,,,,,,,,,,,,,,,,,,,,,,,,,,,,,,,,,
1606521676.124784,17.000000,0.000000,4176.282227,4420.897461,4223.077148,5016.410156,4636.666504,4191.666504,4214.102539,4225.512695,4203.461426,4282.948730,4254.102539,4192.692383,4842.948730,4127.051270,0.000000,3.000000,,,,0.000000,4.000000,4.000000,4.000000,4.000000,4.000000,4.000000,4.000000,4.000000,4.000000,4.000000,4.000000,4.000000,4.000000,4.000000,100.000000,,,,,,,,,,,,,,,,,,,,,,,,,,,,,,,,,,,,,,,,,,,,,,,,,,,,,,,,,,,,,,,,,,,,,,,,,,,,,,,,,,
1606521676.132680,18.000000,0.000000,4189.102539,4436.025879,4232.179688,5045.641113,4644.871582,4208.974121,4217.563965,4219.487305,4213.846191,4304.871582,4267.051270,4203.205078,4858.974121,4141.282227,0.000000,3.000000,,,,0.000000,4.000000,4.000000,4.000000,4.000000,4.000000,4.000000,4.000000,4.000000,4.000000,4.000000,4.000000,4.000000,4.000000,4.000000,100.000000,,,,,,,,,,,,,,,,,,,,,,,,,,,,,,,,,,,,,,,,,,,,,,,,,,,,,,,,,,,,,,,,,,,,,,,,,,,,,,,,,,
1606521676.140475,19.000000,0.000000,4186.922852,4429.358887,4227.179688,5060.256348,4618.974121,4219.743652,4227.436035,4227.563965,4211.922852,4305.128418,4263.461426,4201.794922,4864.487305,4135.256348,0.000000,3.000000,,,,0.000000,4.000000,4.000000,4.000000,4.000000,4.000000,4.000000,4.000000,4.000000,4.000000,4.000000,4.000000,4.000000,4.000000,4.000000,100.000000,,,,,,,,,,,,,,,,,,,,,,,,,,,,,,,,,,,,,,,,,,,,,,,,,,,,,,,,,,,,,,,,,,,,,,,,,,,,,,,,,,
1606521676.148371,20.000000,0.000000,4178.589844,4425.256348,4216.538574,5061.922852,4603.461426,4200.641113,4215.769043,4214.230957,4194.230957,4296.410156,4254.358887,4198.205078,4849.230957,4128.717773,0.000000,3.000000,,,,0.000000,4.000000,4.000000,4.000000,4.000000,4.000000,4.000000,4.000000,4.000000,4.000000,4.000000,4.000000,4.000000,4.000000,4.000000,100.000000,5.000000,0.000000,0.692875,-0.355896,-0.612854,-0.132935,0.978042,-0.352544,-0.086427,-36.935989,-120.677498,6.878767,,,,,,,,,,,,,,,,,,,,,,,,,,,,,,,,,,,,,,,,,,,,,,,,,,,,,,,,,,,,,,,,,,,,,,
1606521676.156067,21.000000,0.000000,4179.230957,4440.384766,4219.871582,5074.743652,4606.794922,4185.000000,4194.358887,4188.077148,4189.743652,4292.692383,4255.128418,4196.922852,4837.436035,4133.846191,0.000000,3.000000,,,,0.000000,4.000000,4.000000,4.000000,4.000000,4.000000,4.000000,4.000000,4.000000,4.000000,4.000000,4.000000,4.000000,4.000000,4.000000,100.000000,,,,,,,,,,,,,,,,,,,,,,,,,,,,,,,,,,,,,,,,,,,,,,,,,,,,,,,,,,,,,,,,,,,,,,,,,,,,,,,,,,
1606521676.163763,22.000000,0.000000,4194.358887,4466.025879,4236.666504,5103.974121,4588.974121,4204.230957,4202.307617,4194.102539,4201.025879,4297.307617,4270.769043,4210.128418,4847.563965,4145.256348,0.000000,3.000000,,,,0.000000,4.000000,4.000000,4.000000,4.000000,4.000000,4.000000,4.000000,4.000000,4.000000,4.000000,4.000000,4.000000,4.000000,4.000000,100.000000,,,,,,,,,,,,,7.448163,3.035160,1.065204,0.887339,1.038567,20.798304,6.401165,1.644485,1.649136,1.733059,3.191195,0.666463,0.793536,0.826630,1.132185,5.659624,1.070002,1.707094,1.324699,1.433154,4.392702,2.765704,7.189180,24.130808,21.152269,2.223659,0.884990,0.713863,1.764596,1.394083,1.248543,1.111908,0.588591,0.685205,0.936572,2.139841,1.929035,1.042420,0.822618,1.022487,1.697999,1.387206,0.840856,0.795669,0.806361,2.305635,2.013666,4.759802,8.460191,8.903563,5.906497,1.543131,1.876914,1.075815,1.706618,4.571993,1.519671,0.968731,0.992469,1.479097,17.855951,4.932714,1.377545,1.501595,1.720720,17.724880,4.692784,1.295692,0.964463,1.168935
1606521676.171358,23.000000,0.000000,4218.846191,4490.128418,4258.333496,5133.717773,4587.563965,4233.974121,4237.051270,4231.282227,4221.410156,4330.256348,4295.769043,4236.666504,4868.461426,4167.051270,0.000000,3.000000,,,,0.000000,4.000000,4.000000,4.000000,4.000000,4.000000,4.000000,4.000000,4.000000,4.000000,4.000000,4.000000,4.000000,4.000000,4.000000,100.000000,,,,,,,,,,,,,,,,,,,,,,,,,,,,,,,,,,,,,,,,,,,,,,,,,,,,,,,,,,,,,,,,,,,,,,,,,,,,,,,,,,
1606521676.179054,24.000000,0.000000,4222.948730,4497.436035,4265.000000,5141.282227,4617.051270,4242.051270,4250.128418,4248.205078,4239.230957,4350.256348,4307.179688,4244.230957,4873.461426,4177.948730,0.000000,3.000000,,,,0.000000,4.000000,4.000000,4.000000,4.000000,4.000000,4.000000,4.000000,4.000000,4.000000,4.000000,4.000000,4.000000,4.000000,4.000000,100.000000,6.000000,0.000000,0.692643,-0.337280,-0.627197,-0.114502,0.975601,-0.340337,-0.113283,-38.132298,-119.182114,8.673228,,,,,,,,,,,,,,,,,,,,,,,,,,,,,,,,,,,,,,,,,,,,,,,,,,,,,,,,,,,,,,,,,,,,,,
1606521676.186750,25.000000,0.000000,4203.846191,4490.769043,4249.230957,5130.512695,4618.333496,4229.871582,4233.974121,4235.512695,4233.205078,4319.102539,4293.717773,4231.922852,4856.025879,4158.846191,0.000000,3.000000,,,,0.000000,4.000000,4.000000,4.000000,4.000000,4.000000,4.000000,4.000000,4.000000,4.000000,4.000000,4.000000,4.000000,4.000000,4.000000,100.000000,,,,,,,,,,,,,,,,,,,,,,,,,,,,,,,,,,,,,,,,,,,,,,,,,,,,,,,,,,,,,,,,,,,,,,,,,,,,,,,,,,
1606521676.194446,26.000000,0.000000,4200.128418,4492.692383,4242.179688,5133.717773,4596.282227,4220.128418,4230.641113,4233.205078,4221.410156,4307.563965,4284.871582,4230.512695,4841.538574,4148.205078,0.000000,3.000000,,,,0.000000,4.000000,4.000000,4.000000,4.000000,4.000000,4.000000,4.000000,4.000000,4.000000,4.000000,4.000000,4.000000,4.000000,4.000000,100.000000,,,,,,,,,,,,,,,,,,,,,,,,,,,,,,,,,,,,,,,,,,,,,,,,,,,,,,,,,,,,,,,,,,,,,,,,,,,,,,,,,,
1606521676.202242,27.000000,0.000000,4207.179688,4497.179688,4252.820313,5140.384766,4590.897461,4222.436035,4248.333496,4254.230957,4233.846191,4329.743652,4293.589844,4239.615234,4838.461426,4158.717773,0.000000,3.000000,,,,0.000000,4.000000,4.000000,4.000000,4.000000,4.000000,4.000000,4.000000,4.000000,4.000000,4.000000,4.000000,4.000000,4.000000,4.000000,100.000000,,,,,,,,,,,,,,,,,,,,,,,,,,,,,,,,,,,,,,,,,,,,,,,,,,,,,,,,,,,,,,,,,,,,,,,,,,,,,,,,,,
1606521676.209938,28.000000,0.000000,4195.769043,4490.512695,4248.974121,5125.897461,4579.871582,4224.358887,4246.666504,4255.512695,4238.461426,4320.000000,4287.179688,4233.846191,4818.205078,4148.589844,0.000000,3.000000,,,,0.000000,4.000000,4.000000,4.000000,4.000000,4.000000,4.000000,4.000000,4.000000,4.000000,4.000000,4.000000,4.000000,4.000000,4.000000,100.000000,7.000000,0.000000,0.691647,-0.314270,-0.643860,-0.091125,0.911147,-0.386725,-0.090333,-36.337833,-120.527962,8.523689,,,,,,,,,,,,,,,,,,,,,,,,,,,,,,,,,,,,,,,,,,,,,,,,,,,,,,,,,,,,,,,,,,,,,,
1606521676.217634,29.000000,0.000000,4176.666504,4482.692383,4228.589844,5107.820313,4542.179688,4212.051270,4218.974121,4234.743652,4219.743652,4289.230957,4257.307617,4215.897461,4777.820313,4122.948730,0.000000,3.000000,,,,0.000000,4.000000,4.000000,4.000000,4.000000,4.000000,4.000000,4.000000,4.000000,4.000000,4.000000,4.000000,4.000000,4.000000,4.000000,100.000000,,,,,,,,,,,,,,,,,,,,,,,,,,,,,,,,,,,,,,,,,,,,,,,,,,,,,,,,,,,,,,,,,,,,,,,,,,,,,,,,,,
1606521676.225330,30.000000,0.000000,4177.820313,4490.897461,4225.384766,5109.230957,4530.384766,4205.000000,4211.025879,4232.179688,4211.538574,4282.307617,4245.641113,4216.025879,4757.179688,4123.333496,0.000000,3.000000,,,,0.000000,4.000000,4.000000,4.000000,4.000000,4.000000,4.000000,4.000000,4.000000,4.000000,4.000000,4.000000,4.000000,4.000000,4.000000,100.000000,,,,,,,,,,,,,,,,,,,,,,,,,,,,,,,,,,,,,,,,,,,,,,,,,,,,,,,,,,,,,,,,,,,,,,,,,,,,,,,,,,
1606521676.233325,31.000000,0.000000,4193.846191,4510.641113,4234.230957,5115.897461,4550.897461,4216.282227,4221.666504,4236.282227,4215.512695,4281.410156,4258.077148,4230.769043,4766.282227,4146.538574,0.000000,3.000000,,,,0.000000,4.000000,4.000000,4.000000,4.000000,4.000000,4.000000,4.000000,4.000000,4.000000,4.000000,4.000000,4.000000,4.000000,4.000000,100.000000,,,,,,,,,,,,,,,,,,,,,,,,,,,,,,,,,,,,,,,,,,,,,,,,,,,,,,,,,,,,,,,,,,,,,,,,,,,,,,,,,,
1606521676.241221,32.000000,0.000000,4198.589844,4522.820313,4233.717773,5108.846191,4543.974121,4220.000000,4216.153809,4229.743652,4213.205078,4265.897461,4256.282227,4232.436035,4766.410156,4152.820313,0.000000,3.000000,,,,0.000000,4.000000,4.000000,4.000000,4.000000,4.000000,4.000000,4.000000,4.000000,4.000000,4.000000,4.000000,4.000000,4.000000,4.000000,100.000000,8.000000,0.000000,0.690373,-0.302856,-0.652466,-0.077148,0.921889,-0.414557,-0.087404,-37.085526,-120.527962,7.327382,,,,,,,,,,,,,,,,,,,,,,,,,,,,,,,,,,,,,,,,,,,,,,,,,,,,,,,,,,,,,,,,,,,,,,
1606521676.248917,33.000000,0.000000,4197.436035,4527.948730,4237.692383,5102.051270,4527.307617,4211.538574,4209.743652,4230.897461,4217.563965,4261.538574,4246.153809,4230.000000,4751.538574,4148.589844,0.000000,3.000000,,,,0.000000,4.000000,4.000000,4.000000,4.000000,4.000000,4.000000,4.000000,4.000000,4.000000,4.000000,4.000000,4.000000,4.000000,4.000000,100.000000,,,,,,,,,,,,,,,,,,,,,,,,,,,,,,,,,,,,,,,,,,,,,,,,,,,,,,,,,,,,,,,,,,,,,,,,,,,,,,,,,,
1606521676.256613,34.000000,0.000000,4210.128418,4541.794922,4257.820313,5107.948730,4552.051270,4216.922852,4223.333496,4244.871582,4233.077148,4282.307617,4256.922852,4245.641113,4752.563965,4161.282227,0.000000,3.000000,,,,0.000000,4.000000,4.000000,4.000000,4.000000,4.000000,4.000000,4.000000,4.000000,4.000000,4.000000,4.000000,4.000000,4.000000,4.000000,100.000000,,,,,,,,,,,,,,,,,,,,,,,,,,,,,,,,,,,,,,,,,,,,,,,,,,,,,,,,,,,,,,,,,,,,,,,,,,,,,,,,,,
1606521676.264409,35.000000,0.000000,4226.538574,4558.077148,4268.205078,5116.025879,4556.922852,4230.256348,4234.102539,4248.846191,4235.769043,4293.846191,4268.205078,4260.641113,4760.897461,4176.666504,0.000000,3.000000,,,,0.000000,4.000000,4.000000,4.000000,4.000000,4.000000,4.000000,4.000000,4.000000,4.000000,4.000000,4.000000,4.000000,4.000000,4.000000,100.000000,,,,,,,,,,,,,,,,,,,,,,,,,,,,,,,,,,,,,,,,,,,,,,,,,,,,,,,,,,,,,,,,,,,,,,,,,,,,,,,,,,
1606521676.272105,36.000000,0.000000,4228.077148,4564.230957,4263.846191,5112.692383,4522.820313,4229.871582,4230.512695,4247.051270,4236.153809,4282.820313,4266.282227,4259.102539,4755.769043,4175.897461,0.000000,3.000000,,,,0.000000,4.000000,4.000000,4.000000,4.000000,4.000000,4.000000,4.000000,4.000000,4.000000,4.000000,4.000000,4.000000,4.000000,4.000000,100.000000,9.000000,0.000000,0.689893,-0.304138,-0.652527,-0.075867,0.917006,-0.405768,-0.099123,-35.440605,-119.780273,8.523689,,,,,,,,,,,,,,,,,,,,,,,,,,,,,,,,,,,,,,,,,,,,,,,,,,,,,,,,,,,,,,,,,,,,,,
1606521676.279800,37.000000,0.000000,4229.871582,4574.102539,4269.743652,5108.846191,4535.384766,4232.051270,4236.025879,4259.487305,4248.077148,4277.307617,4272.692383,4259.871582,4748.974121,4179.871582,0.000000,3.000000,,,,0.000000,4.000000,4.000000,4.000000,4.000000,4.000000,4.000000,4.000000,4.000000,4.000000,4.000000,4.000000,4.000000,4.000000,4.000000,100.000000,,,,,,,,,,,,,,,,,,,,,,,,,,,,,,,,,,,,,,,,,,,,,,,,,,,,,,,,,,,,,,,,,,,,,,,,,,,,,,,,,,
1606521676.287696,38.000000,0.000000,4241.025879,4592.436035,4284.230957,5118.077148,4567.051270,4256.282227,4253.205078,4263.717773,4251.282227,4282.307617,4283.717773,4273.717773,4749.102539,4194.358887,0.000000,3.000000,,,,0.000000,4.000000,4.000000,4.000000,4.000000,4.000000,4.000000,4.000000,4.000000,4.000000,4.000000,4.000000,4.000000,4.000000,4.000000,100.000000,,,,,,,,,,,,,8.034163,2.794122,0.790387,0.872106,0.838272,20.419605,5.768651,1.267367,1.649373,1.520299,3.609417,0.729130,0.608734,0.796660,0.902650,5.897292,1.016037,1.383127,1.288780,1.172441,4.107000,3.132032,5.353577,21.157337,17.671442,2.004883,0.762543,0.531862,1.631488,1.231614,1.060504,0.988885,0.509075,0.750666,0.793397,2.136251,1.595536,0.965536,0.853047,0.834833,1.651580,1.257987,0.680875,0.655557,0.682958,2.888509,2.219338,3.937026,7.564305,10.630879,5.940094,1.671354,1.480947,1.007003,1.416212,5.069609,1.348749,0.737784,0.971913,1.181603,18.025751,4.876716,1.115399,1.434085,1.416041,18.545540,4.201665,1.048362,0.917509,0.966057
1606521676.295692,39.000000,0.000000,4250.512695,4606.794922,4294.358887,5128.846191,4548.077148,4265.769043,4260.769043,4266.794922,4253.333496,4287.820313,4291.538574,4294.743652,4751.794922,4203.846191,0.000000,3.000000,,,,0.000000,4.000000,4.000000,4.000000,4.000000,4.000000,4.000000,4.000000,4.000000,4.000000,4.000000,4.000000,4.000000,4.000000,4.000000,100.000000,,,,,,,,,,,,,,,,,,,,,,,,,,,,,,,,,,,,,,,,,,,,,,,,,,,,,,,,,,,,,,,,,,,,,,,,,,,,,,,,,,
1606521676.303587,40.000000,0.000000,4259.358887,4612.436035,4298.717773,5131.666504,4528.205078,4248.077148,4259.743652,4277.051270,4264.871582,4300.897461,4302.436035,4308.717773,4757.179688,4210.641113,0.000000,3.000000,,,,0.000000,4.000000,4.000000,4.000000,4.000000,4.000000,4.000000,4.000000,4.000000,4.000000,4.000000,4.000000,4.000000,4.000000,4.000000,100.000000,10.000000,0.000000,0.688990,-0.313843,-0.648438,-0.079529,0.917494,-0.420417,-0.104982,-37.982758,-120.827042,7.327382,,,,,,,,,,,,,,,,,,,,,,,,,,,,,,,,,,,,,,,,,,,,,,,,,,,,,,,,,,,,,,,,,,,,,,
1606521676.311483,41.000000,0.000000,4266.666504,4617.307617,4303.717773,5132.563965,4546.666504,4250.000000,4265.128418,4275.384766,4267.820313,4317.436035,4304.615234,4313.077148,4759.615234,4220.000000,0.000000,3.000000,,,,0.000000,4.000000,4.000000,4.000000,4.000000,4.000000,4.000000,4.000000,4.000000,4.000000,4.000000,4.000000,4.000000,4.000000,4.000000,100.000000,,,,,,,,,,,,,,,,,,,,,,,,,,,,,,,,,,,,,,,,,,,,,,,,,,,,,,,,,,,,,,,,,,,,,,,,,,,,,,,,,,
1606521676.319379,42.000000,0.000000,4264.358887,4620.769043,4308.974121,5133.846191,4538.205078,4271.025879,4270.897461,4268.205078,4266.282227,4325.256348,4300.128418,4312.051270,4753.846191,4221.794922,0.000000,3.000000,,,,0.000000,4.000000,4.000000,4.000000,4.000000,4.000000,4.000000,4.000000,4.000000,4.000000,4.000000,4.000000,4.000000,4.000000,4.000000,100.000000,,,,,,,,,,,,,,,,,,,,,,,,,,,,,,,,,,,,,,,,,,,,,,,,,,,,,,,,,,,,,,,,,,,,,,,,,,,,,,,,,,
1606521676.327375,43.000000,0.000000,4254.487305,4613.461426,4305.000000,5120.384766,4502.436035,4267.307617,4268.717773,4268.717773,4266.922852,4316.153809,4294.358887,4303.461426,4745.384766,4208.846191,0.000000,3.000000,,,,0.000000,4.000000,4.000000,4.000000,4.000000,4.000000,4.000000,4.000000,4.000000,4.000000,4.000000,4.000000,4.000000,4.000000,4.000000,100.000000,,,,,,,,,,,,,,,,,,,,,,,,,,,,,,,,,,,,,,,,,,,,,,,,,,,,,,,,,,,,,,,,,,,,,,,,,,,,,,,,,,
1606521676.335270,44.000000,0.000000,4247.563965,4602.948730,4294.230957,5104.487305,4511.666504,4254.358887,4261.025879,4263.461426,4255.641113,4302.051270,4286.538574,4295.384766,4738.589844,4200.512695,0.000000,3.000000,,,,0.000000,4.000000,4.000000,4.000000,4.000000,4.000000,4.000000,4.000000,4.000000,4.000000,4.000000,4.000000,4.000000,4.000000,4.000000,100.000000,11.000000,0.000000,0.688261,-0.321594,-0.644897,-0.083557,0.930190,-0.420905,-0.103029,-37.085526,-121.275658,8.523689,,,,,,,,,,,,,,,,,,,,,,,,,,,,,,,,,,,,,,,,,,,,,,,,,,,,,,,,,,,,,,,,,,,,,,
1606521676.342966,45.000000,0.000000,4242.436035,4593.589844,4286.153809,5100.512695,4529.102539,4258.717773,4251.922852,4249.871582,4244.230957,4292.179688,4277.563965,4290.000000,4729.102539,4200.384766,0.000000,3.000000,,,,0.000000,4.000000,4.000000,4.000000,4.000000,4.000000,4.000000,4.000000,4.000000,4.000000,4.000000,4.000000,4.000000,4.000000,4.000000,100.000000,,,,,,,,,,,,,,,,,,,,,,,,,,,,,,,,,,,,,,,,,,,,,,,,,,,,,,,,,,,,,,,,,,,,,,,,,,,,,,,,,,
1606521676.350662,46.000000,0.000000,4236.025879,4584.615234,4278.461426,5092.692383,4495.000000,4251.282227,4245.256348,4245.000000,4245.128418,4285.641113,4270.641113,4281.794922,4717.179688,4190.897461,0.000000,3.000000,,,,0.000000,4.000000,4.000000,4.000000,4.000000,4.000000,4.000000,4.000000,4.000000,4.000000,4.000000,4.000000,4.000000,4.000000,4.000000,100.000000,,,,,,,,,,,,,,,,,,,,,,,,,,,,,,,,,,,,,,,,,,,,,,,,,,,,,,,,,,,,,,,,,,,,,,,,,,,,,,,,,,
1606521676.358257,47.000000,0.000000,4229.487305,4581.538574,4271.666504,5077.820313,4462.051270,4235.000000,4243.589844,4243.974121,4242.563965,4282.307617,4268.205078,4276.538574,4713.461426,4184.358887,0.000000,3.000000,,,,0.000000,4.000000,4.000000,4.000000,4.000000,4.000000,4.000000,4.000000,4.000000,4.000000,4.000000,4.000000,4.000000,4.000000,4.000000,100.000000,,,,,,,,,,,,,,,,,,,,,,,,,,,,,,,,,,,,,,,,,,,,,,,,,,,,,,,,,,,,,,,,,,,,,,,,,,,,,,,,,,
1606521676.365953,48.000000,0.000000,4216.922852,4570.512695,4258.077148,5064.102539,4464.102539,4239.743652,4236.794922,4239.615234,4227.692383,4268.717773,4261.538574,4269.102539,4704.871582,4179.871582,0.000000,3.000000,,,,0.000000,4.000000,4.000000,4.000000,4.000000,4.000000,4.000000,4.000000,4.000000,4.000000,4.000000,4.000000,4.000000,4.000000,4.000000,100.000000,12.000000,0.000000,0.687888,-0.323059,-0.644531,-0.083801,0.931167,-0.404791,-0.085939,-37.384605,-120.228882,6.878767,,,,,,,,,,,,,,,,,,,,,,,,,,,,,,,,,,,,,,,,,,,,,,,,,,,,,,,,,,,,,,,,,,,,,,
1606521676.373649,49.000000,0.000000,4210.769043,4552.051270,4247.436035,5055.512695,4455.000000,4241.153809,4231.922852,4241.153809,4221.794922,4254.358887,4252.179688,4261.282227,4688.077148,4170.000000,0.000000,3.000000,,,,0.000000,4.000000,4.000000,4.000000,4.000000,4.000000,4.000000,4.000000,4.000000,4.000000,4.000000,4.000000,4.000000,4.000000,4.000000,100.000000,,,,,,,,,,,,,,,,,,,,,,,,,,,,,,,,,,,,,,,,,,,,,,,,,,,,,,,,,,,,,,,,,,,,,,,,,,,,,,,,,,
1606521676.381345,50.000000,0.000000,4222.436035,4557.051270,4259.487305,5055.256348,4435.256348,4230.256348,4238.589844,4248.589844,4238.077148,4264.358887,4259.358887,4272.051270,4693.717773,4172.179688,0.000000,3.000000,,,,0.000000,4.000000,4.000000,4.000000,4.000000,4.000000,4.000000,4.000000,4.000000,4.000000,4.000000,4.000000,4.000000,4.000000,4.000000,100.000000,,,,,,,,,,,,,,,,,,,,,,,,,,,,,,,,,,,,,,,,,,,,,,,,,,,,,,,,,,,,,,,,,,,,,,,,,,,,,,,,,,
1606521676.389140,51.000000,0.000000,4227.179688,4571.153809,4262.692383,5056.025879,4440.512695,4227.307617,4240.769043,4249.230957,4248.077148,4277.179688,4273.717773,4279.871582,4707.948730,4180.897461,0.000000,3.000000,,,,0.000000,4.000000,4.000000,4.000000,4.000000,4.000000,4.000000,4.000000,4.000000,4.000000,4.000000,4.000000,4.000000,4.000000,4.000000,100.000000,,,,,,,,,,,,,,,,,,,,,,,,,,,,,,,,,,,,,,,,,,,,,,,,,,,,,,,,,,,,,,,,,,,,,,,,,,,,,,,,,,
1606521676.396836,52.000000,0.000000,4204.615234,4548.717773,4236.025879,5039.102539,4434.358887,4223.589844,4231.153809,4235.000000,4227.692383,4256.153809,4252.692383,4256.922852,4681.794922,4162.051270,0.000000,3.000000,,,,0.000000,4.000000,4.000000,4.000000,4.000000,4.000000,4.000000,4.000000,4.000000,4.000000,4.000000,4.000000,4.000000,4.000000,4.000000,100.000000,13.000000,0.000000,0.688138,-0.323853,-0.643738,-0.084778,0.922866,-0.382818,-0.057130,-36.337833,-120.527962,5.831998,,,,,,,,,,,,,,,,,,,,,,,,,,,,,,,,,,,,,,,,,,,,,,,,,,,,,,,,,,,,,,,,,,,,,,
1606521676.404532,53.000000,0.000000,4185.512695,4516.282227,4220.384766,5016.025879,4398.333496,4216.538574,4221.153809,4221.153809,4214.102539,4219.230957,4223.205078,4237.692383,4642.179688,4136.153809,0.000000,3.000000,,,,0.000000,4.000000,4.000000,4.000000,4.000000,4.000000,4.000000,4.000000,4.000000,4.000000,4.000000,4.000000,4.000000,4.000000,4.000000,100.000000,,,,,,,,,,,,,,,,,,,,,,,,,,,,,,,,,,,,,,,,,,,,,,,,,,,,,,,,,,,,,,,,,,,,,,,,,,,,,,,,,,
1606521676.412328,54.000000,0.000000,4198.461426,4523.717773,4233.461426,5019.743652,4391.025879,4222.436035,4220.128418,4216.666504,4226.153809,4220.512695,4237.179688,4249.871582,4646.025879,4148.717773,0.000000,3.000000,,,,0.000000,4.000000,4.000000,4.000000,4.000000,4.000000,4.000000,4.000000,4.000000,4.000000,4.000000,4.000000,4.000000,4.000000,4.000000,100.000000,,,,,,,,,,,,,8.484264,2.680889,0.605806,0.835883,0.638718,18.664482,4.680426,0.908679,1.615079,1.314429,4.292876,1.126014,0.521961,0.777943,0.688304,5.837813,1.150606,1.087357,1.237573,0.906898,4.182356,3.859593,3.760438,17.287025,14.493134,1.959322,0.783549,0.474358,1.472472,1.085563,0.987414,0.978785,0.475507,0.853487,0.674545,2.333864,1.425650,0.867570,0.954977,0.672069,1.685481,1.250788,0.528470,0.589323,0.597520,4.035963,2.834733,3.213265,6.481189,12.321416,6.077260,2.107690,1.143283,0.958712,1.109594,5.886516,1.429861,0.666137,0.949364,0.875562,18.914663,5.332583,0.961692,1.388154,1.104800,18.921238,3.716677,0.923073,0.868960,0.770817
1606521676.420224,55.000000,0.000000,4208.333496,4542.051270,4237.820313,5029.358887,4413.461426,4227.051270,4218.333496,4217.307617,4224.871582,4246.282227,4248.461426,4257.692383,4654.871582,4167.307617,0.000000,3.000000,,,,0.000000,4.000000,4.000000,4.000000,4.000000,4.000000,4.000000,4.000000,4.000000,4.000000,4.000000,4.000000,4.000000,4.000000,4.000000,100.000000,,,,,,,,,,,,,,,,,,,,,,,,,,,,,,,,,,,,,,,,,,,,,,,,,,,,,,,,,,,,,,,,,,,,,,,,,,,,,,,,,,
1606521676.428119,56.000000,0.000000,4191.410156,4518.461426,4224.615234,5013.077148,4395.512695,4211.538574,4204.743652,4214.358887,4208.974121,4237.563965,4224.615234,4241.153809,4621.794922,4150.000000,0.000000,3.000000,,,,0.000000,4.000000,4.000000,4.000000,4.000000,4.000000,4.000000,4.000000,4.000000,4.000000,4.000000,4.000000,4.000000,4.000000,4.000000,100.000000,14.000000,0.000000,0.688427,-0.331421,-0.638611,-0.091675,0.946303,-0.388678,-0.029297,-36.786449,-120.827042,7.028306,,,,,,,,,,,,,,,,,,,,,,,,,,,,,,,,,,,,,,,,,,,,,,,,,,,,,,,,,,,,,,,,,,,,,,
1606521676.436015,57.000000,0.000000,4189.358887,4483.205078,4226.666504,5000.000000,4365.641113,4201.538574,4199.743652,4206.153809,4210.256348,4208.974121,4216.153809,4238.077148,4596.794922,4134.615234,0.000000,3.000000,,,,0.000000,4.000000,4.000000,4.000000,4.000000,4.000000,4.000000,4.000000,4.000000,4.000000,4.000000,4.000000,4.000000,4.000000,4.000000,100.000000,,,,,,,,,,,,,,,,,,,,,,,,,,,,,,,,,,,,,,,,,,,,,,,,,,,,,,,,,,,,,,,,,,,,,,,,,,,,,,,,,,
1606521676.443711,58.000000,0.000000,4201.794922,4488.974121,4236.025879,5004.102539,4376.410156,4203.846191,4205.128418,4204.358887,4218.205078,4212.563965,4230.641113,4249.871582,4603.974121,4147.948730,0.000000,3.000000,,,,0.000000,4.000000,4.000000,4.000000,4.000000,4.000000,4.000000,4.000000,4.000000,4.000000,4.000000,4.000000,4.000000,4.000000,4.000000,100.000000,,,,,,,,,,,,,,,,,,,,,,,,,,,,,,,,,,,,,,,,,,,,,,,,,,,,,,,,,,,,,,,,,,,,,,,,,,,,,,,,,,
1606521676.451507,59.000000,0.000000,4181.282227,4490.256348,4217.948730,4989.743652,4354.358887,4192.692383,4187.179688,4199.487305,4205.128418,4216.794922,4214.358887,4234.743652,4585.384766,4141.282227,0.000000,3.000000,,,,0.000000,4.000000,4.000000,4.000000,4.000000,4.000000,4.000000,4.000000,4.000000,4.000000,4.000000,4.000000,4.000000,4.000000,4.000000,100.000000,,,,,,,,,,,,,,,,,,,,,,,,,,,,,,,,,,,,,,,,,,,,,,,,,,,,,,,,,,,,,,,,,,,,,,,,,,,,,,,,,,
1606521676.459203,60.000000,0.000000,4159.487305,4455.897461,4199.358887,4972.692383,4306.282227,4181.282227,4170.000000,4183.461426,4188.461426,4194.102539,4193.333496,4214.615234,4556.922852,4121.922852,0.000000,3.000000,,,,0.000000,4.000000,4.000000,4.000000,4.000000,4.000000,4.000000,4.000000,4.000000,4.000000,4.000000,4.000000,4.000000,4.000000,4.000000,100.000000,15.000000,0.000000,0.688235,-0.343018,-0.631165,-0.101501,0.972671,-0.386236,-0.025879,-36.038757,-120.677498,7.626459,,,,,,,,,,,,,,,,,,,,,,,,,,,,,,,,,,,,,,,,,,,,,,,,,,,,,,,,,,,,,,,,,,,,,,
1606521676.466899,61.000000,0.000000,4176.794922,4445.897461,4213.333496,4991.282227,4329.230957,4190.641113,4190.128418,4181.666504,4192.307617,4188.333496,4213.974121,4225.897461,4568.974121,4136.025879,0.000000,3.000000,,,,0.000000,4.000000,4.000000,4.000000,4.000000,4.000000,4.000000,4.000000,4.000000,4.000000,4.000000,4.000000,4.000000,4.000000,4.000000,100.000000,,,,,,,,,,,,,,,,,,,,,,,,,,,,,,,,,,,,,,,,,,,,,,,,,,,,,,,,,,,,,,,,,,,,,,,,,,,,,,,,,,
1606521676.474595,62.000000,0.000000,4194.743652,4472.692383,4228.333496,5020.128418,4372.436035,4202.179688,4205.384766,4197.179688,4203.846191,4208.205078,4237.563965,4241.410156,4582.051270,4155.897461,0.000000,3.000000,,,,0.000000,4.000000,4.000000,4.000000,4.000000,4.000000,4.000000,4.000000,4.000000,4.000000,4.000000,4.000000,4.000000,4.000000,4.000000,100.000000,,,,,,,,,,,,,,,,,,,,,,,,,,,,,,,,,,,,,,,,,,,,,,,,,,,,,,,,,,,,,,,,,,,,,,,,,,,,,,,,,,
1606521676.482390,63.000000,0.000000,4185.769043,4478.205078,4221.794922,5026.922852,4351.666504,4200.512695,4194.871582,4201.282227,4203.205078,4215.128418,4232.179688,4236.282227,4566.922852,4149.871582,0.000000,3.000000,,,,0.000000,4.000000,4.000000,4.000000,4.000000,4.000000,4.000000,4.000000,4.000000,4.000000,4.000000,4.000000,4.000000,4.000000,4.000000,100.000000,,,,,,,,,,,,,,,,,,,,,,,,,,,,,,,,,,,,,,,,,,,,,,,,,,,,,,,,,,,,,,,,,,,,,,,,,,,,,,,,,,
1606521676.490086,64.000000,0.000000,4184.102539,4466.666504,4222.307617,5021.666504,4330.128418,4201.922852,4198.717773,4199.615234,4197.563965,4206.538574,4225.897461,4235.769043,4561.666504,4146.538574,3402.000000,3.000000,,,,0.000000,4.000000,4.000000,4.000000,4.000000,4.000000,4.000000,4.000000,4.000000,4.000000,4.000000,4.000000,4.000000,4.000000,4.000000,100.000000,16.000000,0.000000,0.687809,-0.353027,-0.624634,-0.110107,0.959487,-0.417487,-0.029297,-36.038757,-121.126114,7.626459,,,,,,,,,,,,,,,,,,,,,,,,,,,,,,,,,,,,,,,,,,,,,,,,,,,,,,,,,,,,,,,,,,,,,,
1606521676.497782,65.000000,0.000000,4208.461426,4470.000000,4247.051270,5029.102539,4347.051270,4210.897461,4222.563965,4219.358887,4210.384766,4214.358887,4245.000000,4252.692383,4580.384766,4169.102539,3461.000000,3.000000,,,,0.000000,4.000000,4.000000,4.000000,4.000000,4.000000,4.000000,4.000000,4.000000,4.000000,4.000000,4.000000,4.000000,4.000000,4.000000,100.000000,,,,,,,,,,,,,,,,,,,,,,,,,,,,,,,,,,,,,,,,,,,,,,,,,,,,,,,,,,,,,,,,,,,,,,,,,,,,,,,,,,
1606521676.505478,66.000000,0.000000,4228.974121,4478.589844,4270.000000,5043.333496,4351.666504,4226.922852,4237.051270,4239.871582,4229.358887,4234.230957,4262.692383,4269.102539,4590.512695,4192.692383,3362.000000,3.000000,,,,0.000000,4.000000,4.000000,4.000000,4.000000,4.000000,4.000000,4.000000,4.000000,4.000000,4.000000,4.000000,4.000000,4.000000,4.000000,100.000000,,,,,,,,,,,,,,,,,,,,,,,,,,,,,,,,,,,,,,,,,,,,,,,,,,,,,,,,,,,,,,,,,,,,,,,,,,,,,,,,,,
1606521676.513474,67.000000,0.000000,4221.794922,4478.461426,4265.000000,5039.871582,4347.820313,4240.769043,4231.666504,4238.589844,4231.922852,4237.179688,4254.743652,4268.717773,4576.282227,4187.820313,3540.000000,3.000000,,,,0.000000,4.000000,4.000000,4.000000,4.000000,4.000000,4.000000,4.000000,4.000000,4.000000,4.000000,4.000000,4.000000,4.000000,4.000000,100.000000,,,,,,,,,,,,,,,,,,,,,,,,,,,,,,,,,,,,,,,,,,,,,,,,,,,,,,,,,,,,,,,,,,,,,,,,,,,,,,,,,,
1606521676.521370,68.000000,0.000000,4206.922852,4462.436035,4247.563965,5023.461426,4339.487305,4224.358887,4216.538574,4229.102539,4230.512695,4230.769043,4240.769043,4258.205078,4557.948730,4170.384766,3626.000000,3.000000,,,,0.000000,4.000000,4.000000,4.000000,4.000000,4.000000,4.000000,4.000000,4.000000,4.000000,4.000000,4.000000,4.000000,4.000000,4.000000,100.000000,17.000000,0.000000,0.687510,-0.360107,-0.619751,-0.116455,0.934096,-0.391608,-0.021485,-35.739681,-121.873810,9.121843,,,,,,,,,,,,,,,,,,,,,,,,,,,,,,,,,,,,,,,,,,,,,,,,,,,,,,,,,,,,,,,,,,,,,,
1606521676.529265,69.000000,0.000000,4208.846191,4439.743652,4246.153809,5019.871582,4315.384766,4194.615234,4203.717773,4222.563965,4230.897461,4234.358887,4242.820313,4258.077148,4555.000000,4170.512695,3492.000000,3.000000,,,,0.000000,4.000000,4.000000,4.000000,4.000000,4.000000,4.000000,4.000000,4.000000,4.000000,4.000000,4.000000,4.000000,4.000000,4.000000,100.000000,,,,,,,,,,,,,,,,,,,,,,,,,,,,,,,,,,,,,,,,,,,,,,,,,,,,,,,,,,,,,,,,,,,,,,,,,,,,,,,,,,
1606521676.537161,70.000000,0.000000,4215.000000,4437.051270,4251.666504,5030.641113,4307.051270,4196.025879,4203.974121,4214.358887,4222.179688,4234.102539,4248.077148,4261.794922,4554.358887,4179.102539,3475.000000,3.000000,,,,0.000000,4.000000,4.000000,4.000000,4.000000,4.000000,4.000000,4.000000,4.000000,4.000000,4.000000,4.000000,4.000000,4.000000,4.000000,100.000000,,,,,,,,,,,,,9.362517,2.926852,0.534636,0.793411,0.482279,17.085600,3.483712,0.667698,1.532372,1.135657,5.522470,1.935619,0.541056,0.777279,0.534921,8.315280,1.521802,0.844612,1.169546,0.697273,4.864968,4.790585,2.695182,13.161307,11.805354,2.336666,1.013372,0.508544,1.306537,0.957109,1.244618,1.206949,0.481948,0.956881,0.617578,2.762180,1.576244,0.765894,1.091044,0.572885,1.869180,1.450148,0.408895,0.565031,0.568974,6.046219,3.739997,2.769134,5.447585,13.254615,6.921741,2.903753,0.912053,0.939837,0.853474,7.317991,1.854892,0.725948,0.924383,0.625655,23.881380,6.625990,0.947444,1.389450,0.864575,19.834560,3.514041,0.925694,0.829297,0.623227
1606521676.544956,71.000000,0.000000,4214.230957,4452.948730,4254.487305,5042.948730,4327.307617,4213.205078,4209.615234,4207.948730,4220.641113,4232.692383,4247.307617,4261.538574,4551.538574,4182.820313,3335.000000,3.000000,,,,0.000000,4.000000,4.000000,4.000000,4.000000,4.000000,4.000000,4.000000,4.000000,4.000000,4.000000,4.000000,4.000000,4.000000,4.000000,100.000000,,,,,,,,,,,,,,,,,,,,,,,,,,,,,,,,,,,,,,,,,,,,,,,,,,,,,,,,,,,,,,,,,,,,,,,,,,,,,,,,,,
1606521676.552652,72.000000,0.000000,4210.384766,4446.666504,4256.153809,5043.846191,4318.846191,4208.077148,4204.358887,4211.410156,4227.820313,4234.615234,4246.153809,4259.102539,4548.974121,4180.897461,3224.000000,3.000000,,,,0.000000,4.000000,4.000000,4.000000,4.000000,4.000000,4.000000,4.000000,4.000000,4.000000,4.000000,4.000000,4.000000,4.000000,4.000000,100.000000,18.000000,0.000000,0.687488,-0.363037,-0.617493,-0.119446,0.937514,-0.416999,-0.040040,-35.739681,-122.920578,8.374151,,,,,,,,,,,,,,,,,,,,,,,,,,,,,,,,,,,,,,,,,,,,,,,,,,,,,,,,,,,,,,,,,,,,,,
1606521676.560348,73.000000,0.000000,4212.179688,4426.794922,4255.641113,5042.563965,4285.641113,4199.487305,4204.871582,4218.077148,4222.820313,4232.436035,4244.102539,4257.948730,4541.922852,4176.282227,3552.000000,3.000000,,,,0.000000,4.000000,4.000000,4.000000,4.000000,4.000000,4.000000,4.000000,4.000000,4.000000,4.000000,4.000000,4.000000,4.000000,4.000000,100.000000,,,,,,,,,,,,,,,,,,,,,,,,,,,,,,,,,,,,,,,,,,,,,,,,,,,,,,,,,,,,,,,,,,,,,,,,,,,,,,,,,,
1606521676.568244,74.000000,0.000000,4219.743652,4440.128418,4262.692383,5047.179688,4298.974121,4215.000000,4219.230957,4217.820313,4214.230957,4237.820313,4245.512695,4263.974121,4538.717773,4183.461426,3548.000000,3.000000,,,,0.000000,4.000000,4.000000,4.000000,4.000000,4.000000,4.000000,4.000000,4.000000,4.000000,4.000000,4.000000,4.000000,4.000000,4.000000,100.000000,,,,,,,,,,,,,,,,,,,,,,,,,,,,,,,,,,,,,,,,,,,,,,,,,,,,,,,,,,,,,,,,,,,,,,,,,,,,,,,,,,
1606521676.575840,75.000000,0.000000,4218.589844,4458.717773,4265.128418,5039.358887,4323.974121,4224.743652,4219.487305,4219.358887,4218.974121,4244.230957,4247.820313,4264.358887,4536.922852,4189.743652,3554.000000,3.000000,,,,0.000000,4.000000,4.000000,4.000000,4.000000,4.000000,4.000000,4.000000,4.000000,4.000000,4.000000,4.000000,4.000000,4.000000,4.000000,100.000000,,,,,,,,,,,,,,,,,,,,,,,,,,,,,,,,,,,,,,,,,,,,,,,,,,,,,,,,,,,,,,,,,,,,,,,,,,,,,,,,,,
1606521676.583735,76.000000,0.000000,4220.641113,4439.871582,4262.179688,5037.179688,4314.102539,4216.282227,4213.589844,4227.307617,4229.743652,4241.025879,4252.692383,4261.410156,4536.025879,4187.179688,3514.000000,3.000000,,,,0.000000,4.000000,4.000000,4.000000,4.000000,4.000000,4.000000,4.000000,4.000000,4.000000,4.000000,4.000000,4.000000,4.000000,4.000000,100.000000,19.000000,0.000000,0.687457,-0.366760,-0.614441,-0.123901,0.920424,-0.399420,-0.031250,-36.487373,-120.677498,8.673228,,,,,,,,,,,,,,,,,,,,,,,,,,,,,,,,,,,,,,,,,,,,,,,,,,,,,,,,,,,,,,,,,,,,,,
1606521676.591631,77.000000,0.000000,4227.692383,4417.051270,4264.358887,5032.948730,4275.641113,4215.000000,4217.307617,4221.025879,4229.102539,4243.077148,4252.692383,4261.410156,4535.128418,4187.948730,3218.000000,3.000000,,,,0.000000,4.000000,4.000000,4.000000,4.000000,4.000000,4.000000,4.000000,4.000000,4.000000,4.000000,4.000000,4.000000,4.000000,4.000000,100.000000,,,,,,,,,,,,,,,,,,,,,,,,,,,,,,,,,,,,,,,,,,,,,,,,,,,,,,,,,,,,,,,,,,,,,,,,,,,,,,,,,,
1606521676.599327,78.000000,0.000000,4216.025879,4422.436035,4257.051270,5002.051270,4252.307617,4215.769043,4208.846191,4205.256348,4217.436035,4244.871582,4237.563965,4254.743652,4520.769043,4184.743652,3548.000000,3.000000,,,,0.000000,4.000000,4.000000,4.000000,4.000000,4.000000,4.000000,4.000000,4.000000,4.000000,4.000000,4.000000,4.000000,4.000000,4.000000,100.000000,,,,,,,,,,,,,,,,,,,,,,,,,,,,,,,,,,,,,,,,,,,,,,,,,,,,,,,,,,,,,,,,,,,,,,,,,,,,,,,,,,
1606521676.607123,79.000000,0.000000,4201.025879,4434.102539,4243.461426,4992.948730,4280.384766,4211.153809,4194.871582,4199.871582,4210.000000,4239.487305,4231.025879,4246.153809,4505.000000,4179.743652,3554.000000,3.000000,,,,0.000000,4.000000,4.000000,4.000000,4.000000,4.000000,4.000000,4.000000,4.000000,4.000000,4.000000,4.000000,4.000000,4.000000,4.000000,100.000000,,,,,,,,,,,,,,,,,,,,,,,,,,,,,,,,,,,,,,,,,,,,,,,,,,,,,,,,,,,,,,,,,,,,,,,,,,,,,,,,,,
1606521676.615018,80.000000,0.000000,4205.897461,4426.410156,4239.358887,5011.153809,4303.846191,4212.563965,4198.846191,4199.358887,4212.948730,4240.256348,4239.230957,4244.743652,4503.461426,4179.358887,3514.000000,3.000000,,,,0.000000,4.000000,4.000000,4.000000,4.000000,4.000000,4.000000,4.000000,4.000000,4.000000,4.000000,4.000000,4.000000,4.000000,4.000000,100.000000,20.000000,0.000000,0.688057,-0.367310,-0.612854,-0.126770,0.917006,-0.405768,-0.041505,-36.487373,-122.621498,9.869535,,,,,,,,,,,,,,,,,,,,,,,,,,,,,,,,,,,,,,,,,,,,,,,,,,,,,,,,,,,,,,,,,,,,,,
1606521676.622714,81.000000,0.000000,4214.230957,4405.512695,4244.358887,5010.641113,4267.307617,4212.051270,4207.820313,4200.384766,4213.205078,4243.589844,4244.230957,4249.871582,4502.436035,4181.538574,3218.000000,3.000000,,,,0.000000,4.000000,4.000000,4.000000,4.000000,4.000000,4.000000,4.000000,4.000000,4.000000,4.000000,4.000000,4.000000,4.000000,4.000000,100.000000,,,,,,,,,,,,,,,,,,,,,,,,,,,,,,,,,,,,,,,,,,,,,,,,,,,,,,,,,,,,,,,,,,,,,,,,,,,,,,,,,,
1606521676.630410,82.000000,0.000000,4224.743652,4414.487305,4262.692383,5016.282227,4249.230957,4217.692383,4223.846191,4212.307617,4221.794922,4253.461426,4255.769043,4269.102539,4505.769043,4201.410156,3548.000000,3.000000,,,,0.000000,4.000000,4.000000,4.000000,4.000000,4.000000,4.000000,4.000000,4.000000,4.000000,4.000000,4.000000,4.000000,4.000000,4.000000,100.000000,,,,,,,,,,,,,,,,,,,,,,,,,,,,,,,,,,,,,,,,,,,,,,,,,,,,,,,,,,,,,,,,,,,,,,,,,,,,,,,,,,
1606521676.638006,83.000000,0.000000,4237.051270,4457.307617,4274.615234,5046.025879,4304.487305,4233.846191,4238.846191,4225.897461,4241.153809,4268.717773,4272.179688,4282.692383,4514.487305,4222.820313,3554.000000,3.000000,,,,0.000000,4.000000,4.000000,4.000000,4.000000,4.000000,4.000000,4.000000,4.000000,4.000000,4.000000,4.000000,4.000000,4.000000,4.000000,100.000000,,,,,,,,,,,,,,,,,,,,,,,,,,,,,,,,,,,,,,,,,,,,,,,,,,,,,,,,,,,,,,,,,,,,,,,,,,,,,,,,,,
1606521676.645702,84.000000,0.000000,4229.102539,4470.897461,4259.358887,5052.179688,4317.563965,4239.615234,4229.487305,4226.666504,4246.153809,4268.589844,4263.333496,4266.410156,4501.922852,4211.025879,3514.000000,3.000000,,,,0.000000,4.000000,4.000000,4.000000,4.000000,4.000000,4.000000,4.000000,4.000000,4.000000,4.000000,4.000000,4.000000,4.000000,4.000000,100.000000,21.000000,0.000000,0.688831,-0.369080,-0.609924,-0.131470,0.938003,-0.378424,-0.029786,-36.786449,-121.574730,12.710765,,,,,,,,,,,,,,,,,,,,,,,,,,,,,,,,,,,,,,,,,,,,,,,,,,,,,,,,,,,,,,,,,,,,,,
1606521676.653498,85.000000,0.000000,4223.205078,4448.461426,4255.256348,5055.769043,4279.871582,4241.538574,4229.230957,4232.179688,4242.820313,4266.410156,4256.410156,4257.948730,4492.179688,4202.436035,3218.000000,3.000000,,,,0.000000,4.000000,4.000000,4.000000,4.000000,4.000000,4.000000,4.000000,4.000000,4.000000,4.000000,4.000000,4.000000,4.000000,4.000000,100.000000,,,,,,,,,,,,,,,,,,,,,,,,,,,,,,,,,,,,,,,,,,,,,,,,,,,,,,,,,,,,,,,,,,,,,,,,,,,,,,,,,,
1606521676.661194,86.000000,0.000000,4238.077148,4461.538574,4273.333496,5093.205078,4302.948730,4261.282227,4251.666504,4245.256348,4253.589844,4281.025879,4276.153809,4276.282227,4506.922852,4224.230957,3548.000000,3.000000,,,,0.000000,4.000000,4.000000,4.000000,4.000000,4.000000,4.000000,4.000000,4.000000,4.000000,4.000000,4.000000,4.000000,4.000000,4.000000,100.000000,,,,,,,,,,,,,11.106316,3.599060,0.553980,0.765697,0.395941,16.869865,2.618446,0.611778,1.410056,1.008244,7.476912,3.085578,0.627945,0.807219,0.462392,11.740415,2.129491,0.667900,1.097760,0.578603,5.967353,5.680350,2.133745,9.444581,9.590614,3.338380,1.467188,0.594569,1.171647,0.851050,2.059413,1.751143,0.526160,1.041723,0.636427,3.437887,2.102419,0.689345,1.231359,0.548777,2.316301,1.878977,0.349359,0.566177,0.596721,8.988145,4.722367,2.665917,4.626036,12.948223,8.884027,3.988664,0.787779,0.965367,0.692463,9.447936,2.594004,0.845097,0.915128,0.470426,32.856617,8.648487,1.049007,1.454522,0.742045,21.998148,3.727843,1.006567,0.815246,0.549884
1606521676.668990,87.000000,0.000000,4249.358887,4491.153809,4280.256348,5133.846191,4334.230957,4271.410156,4257.948730,4250.000000,4265.256348,4287.436035,4286.282227,4283.077148,4512.948730,4236.410156,3554.000000,3.000000,,,,0.000000,4.000000,4.000000,4.000000,4.000000,4.000000,4.000000,4.000000,4.000000,4.000000,4.000000,4.000000,4.000000,4.000000,4.000000,100.000000,,,,,,,,,,,,,,,,,,,,,,,,,,,,,,,,,,,,,,,,,,,,,,,,,,,,,,,,,,,,,,,,,,,,,,,,,,,,,,,,,,
1606521676.676686,88.000000,0.000000,4255.384766,4462.179688,4287.436035,5140.769043,4294.102539,4267.307617,4256.794922,4251.153809,4261.025879,4280.256348,4281.025879,4280.897461,4506.410156,4236.538574,3514.000000,3.000000,,,,0.000000,4.000000,4.000000,4.000000,4.000000,4.000000,4.000000,4.000000,4.000000,4.000000,4.000000,4.000000,4.000000,4.000000,4.000000,100.000000,22.000000,0.000000,0.690055,-0.370300,-0.606445,-0.137573,0.940932,-0.351080,-0.050294,-35.889221,-121.275658,10.467689,,,,,,,,,,,,,,,,,,,,,,,,,,,,,,,,,,,,,,,,,,,,,,,,,,,,,,,,,,,,,,,,,,,,,,
1606521676.684381,89.000000,0.000000,4248.461426,4439.487305,4284.487305,5130.256348,4278.974121,4266.410156,4256.282227,4248.333496,4253.589844,4282.563965,4277.179688,4279.743652,4506.794922,4236.410156,3218.000000,3.000000,,,,0.000000,4.000000,4.000000,4.000000,4.000000,4.000000,4.000000,4.000000,4.000000,4.000000,4.000000,4.000000,4.000000,4.000000,4.000000,100.000000,,,,,,,,,,,,,,,,,,,,,,,,,,,,,,,,,,,,,,,,,,,,,,,,,,,,,,,,,,,,,,,,,,,,,,,,,,,,,,,,,,
1606521676.692077,90.000000,0.000000,4235.641113,4471.153809,4272.307617,5141.025879,4306.666504,4259.358887,4251.282227,4245.769043,4257.307617,4289.743652,4278.589844,4276.794922,4509.615234,4231.282227,3548.000000,3.000000,,,,0.000000,4.000000,4.000000,4.000000,4.000000,4.000000,4.000000,4.000000,4.000000,4.000000,4.000000,4.000000,4.000000,4.000000,4.000000,100.000000,,,,,,,,,,,,,,,,,,,,,,,,,,,,,,,,,,,,,,,,,,,,,,,,,,,,,,,,,,,,,,,,,,,,,,,,,,,,,,,,,,
1606521676.700073,91.000000,0.000000,4249.358887,4464.358887,4292.820313,5162.948730,4282.436035,4256.794922,4260.128418,4260.641113,4271.794922,4300.384766,4292.307617,4286.794922,4508.205078,4238.333496,3554.000000,3.000000,,,,0.000000,4.000000,4.000000,4.000000,4.000000,4.000000,4.000000,4.000000,4.000000,4.000000,4.000000,4.000000,4.000000,4.000000,4.000000,100.000000,,,,,,,,,,,,,,,,,,,,,,,,,,,,,,,,,,,,,,,,,,,,,,,,,,,,,,,,,,,,,,,,,,,,,,,,,,,,,,,,,,
1606521676.707969,92.000000,0.000000,4262.820313,4430.512695,4308.461426,5184.743652,4260.000000,4267.051270,4271.410156,4270.769043,4273.974121,4302.179688,4300.512695,4295.897461,4499.743652,4244.743652,3514.000000,3.000000,,,,0.000000,4.000000,4.000000,4.000000,4.000000,4.000000,4.000000,4.000000,4.000000,4.000000,4.000000,4.000000,4.000000,4.000000,4.000000,100.000000,23.000000,0.000000,0.692302,-0.368469,-0.603577,-0.143677,0.933608,-0.357427,-0.040528,-37.534142,-120.827042,11.663997,,,,,,,,,,,,,,,,,,,,,,,,,,,,,,,,,,,,,,,,,,,,,,,,,,,,,,,,,,,,,,,,,,,,,,
1606521676.715864,93.000000,0.000000,4239.358887,4443.461426,4275.256348,5216.666504,4286.922852,4263.461426,4252.051270,4249.230957,4253.205078,4285.000000,4283.077148,4278.717773,4487.563965,4225.769043,3218.000000,3.000000,,,,0.000000,4.000000,4.000000,4.000000,4.000000,4.000000,4.000000,4.000000,4.000000,4.000000,4.000000,4.000000,4.000000,4.000000,4.000000,100.000000,,,,,,,,,,,,,,,,,,,,,,,,,,,,,,,,,,,,,,,,,,,,,,,,,,,,,,,,,,,,,,,,,,,,,,,,,,,,,,,,,,
1606521676.723760,94.000000,0.000000,4212.051270,4450.000000,4246.794922,5240.897461,4272.948730,4231.153809,4222.692383,4220.897461,4231.538574,4262.051270,4261.025879,4256.025879,4475.000000,4200.384766,3548.000000,3.000000,,,,0.000000,4.000000,4.000000,4.000000,4.000000,4.000000,4.000000,4.000000,4.000000,4.000000,4.000000,4.000000,4.000000,4.000000,4.000000,100.000000,,,,,,,,,,,,,,,,,,,,,,,,,,,,,,,,,,,,,,,,,,,,,,,,,,,,,,,,,,,,,,,,,,,,,,,,,,,,,,,,,,
1606521676.731756,95.000000,0.000000,4213.717773,4400.897461,4265.000000,5251.538574,4213.461426,4214.102539,4224.743652,4215.897461,4226.282227,4246.666504,4260.512695,4257.436035,4458.333496,4198.717773,3554.000000,3.000000,,,,0.000000,4.000000,4.000000,4.000000,4.000000,4.000000,4.000000,4.000000,4.000000,4.000000,4.000000,4.000000,4.000000,4.000000,4.000000,100.000000,,,,,,,,,,,,,,,,,,,,,,,,,,,,,,,,,,,,,,,,,,,,,,,,,,,,,,,,,,,,,,,,,,,,,,,,,,,,,,,,,,
1606521676.739651,96.000000,0.000000,4220.769043,4367.692383,4279.871582,5287.948730,4194.743652,4218.589844,4238.333496,4220.641113,4231.153809,4249.743652,4269.743652,4263.974121,4453.846191,4205.256348,3514.000000,3.000000,,,,0.000000,4.000000,4.000000,4.000000,4.000000,4.000000,4.000000,4.000000,4.000000,4.000000,4.000000,4.000000,4.000000,4.000000,4.000000,100.000000,24.000000,0.000000,0.694763,-0.369202,-0.597839,-0.153564,0.974136,-0.376959,-0.019532,-37.384605,-120.677498,11.813535,,,,,,,,,,,,,,,,,,,,,,,,,,,,,,,,,,,,,,,,,,,,,,,,,,,,,,,,,,,,,,,,,,,,,,
1606521676.747547,97.000000,0.000000,4211.794922,4397.051270,4253.717773,5357.307617,4220.000000,4207.820313,4222.563965,4209.871582,4224.230957,4245.256348,4259.102539,4249.487305,4456.282227,4194.358887,3218.000000,3.000000,,,,0.000000,4.000000,4.000000,4.000000,4.000000,4.000000,4.000000,4.000000,4.000000,4.000000,4.000000,4.000000,4.000000,4.000000,4.000000,100.000000,,,,,,,,,,,,,,,,,,,,,,,,,,,,,,,,,,,,,,,,,,,,,,,,,,,,,,,,,,,,,,,,,,,,,,,,,,,,,,,,,,
1606521676.755443,98.000000,0.000000,4192.563965,4436.794922,4223.589844,5423.333496,4225.000000,4201.666504,4196.025879,4199.871582,4212.179688,4223.461426,4240.897461,4232.051270,4438.717773,4177.948730,3548.000000,3.000000,,,,0.000000,4.000000,4.000000,4.000000,4.000000,4.000000,4.000000,4.000000,4.000000,4.000000,4.000000,4.000000,4.000000,4.000000,4.000000,100.000000,,,,,,,,,,,,,,,,,,,,,,,,,,,,,,,,,,,,,,,,,,,,,,,,,,,,,,,,,,,,,,,,,,,,,,,,,,,,,,,,,,
1606521676.763139,99.000000,0.000000,4199.743652,4452.948730,4244.230957,5513.846191,4182.692383,4221.922852,4214.615234,4220.128418,4218.461426,4225.000000,4254.743652,4244.743652,4442.307617,4191.282227,3554.000000,3.000000,,,,0.000000,4.000000,4.000000,4.000000,4.000000,4.000000,4.000000,4.000000,4.000000,4.000000,4.000000,4.000000,4.000000,4.000000,4.000000,100.000000,,,,,,,,,,,,,,,,,,,,,,,,,,,,,,,,,,,,,,,,,,,,,,,,,,,,,,,,,,,,,,,,,,,,,,,,,,,,,,,,,,
1606521676.770834,100.000000,0.000000,4244.615234,4452.436035,4296.538574,5631.538574,4163.461426,4241.922852,4265.384766,4244.615234,4237.307617,4262.307617,4295.384766,4283.974121,4508.717773,4239.615234,3514.000000,3.000000,,,,0.000000,4.000000,4.000000,4.000000,4.000000,4.000000,4.000000,4.000000,4.000000,4.000000,4.000000,4.000000,4.000000,4.000000,4.000000,100.000000,25.000000,0.000000,0.696486,-0.372925,-0.590454,-0.164917,0.982925,-0.354498,-0.023438,-36.337833,-120.827042,12.411689,,,,,,,,,,,,,,,,,,,,,,,,,,,,,,,,,,,,,,,,,,,,,,,,,,,,,,,,,,,,,,,,,,,,,,
1606521676.778530,101.000000,0.000000,4266.666504,4483.333496,4304.487305,5738.333496,4227.692383,4242.563965,4271.153809,4230.769043,4234.615234,4275.384766,4321.794922,4300.384766,4560.641113,4273.974121,3218.000000,3.000000,,,,0.000000,4.000000,4.000000,4.000000,4.000000,4.000000,4.000000,4.000000,4.000000,4.000000,4.000000,4.000000,4.000000,4.000000,4.000000,100.000000,,,,,,,,,,,,,,,,,,,,,,,,,,,,,,,,,,,,,,,,,,,,,,,,,,,,,,,,,,,,,,,,,,,,,,,,,,,,,,,,,,
1606521676.786226,102.000000,0.000000,4265.256348,4543.974121,4288.333496,5860.897461,4260.256348,4248.974121,4245.256348,4218.205078,4227.692383,4258.205078,4328.077148,4292.307617,4566.922852,4285.512695,3548.000000,3.000000,,,,0.000000,4.000000,4.000000,4.000000,4.000000,4.000000,4.000000,4.000000,4.000000,4.000000,4.000000,4.000000,4.000000,4.000000,4.000000,100.000000,,,,,,,,,,,,,13.685025,4.521709,0.646356,0.765240,0.384543,18.956001,2.356860,0.763852,1.266479,0.946730,10.164569,4.323831,0.765293,0.871129,0.462019,18.605116,2.834052,0.592589,1.040026,0.548446,7.242901,6.260193,1.935729,6.522073,7.753869,4.925514,2.075932,0.720372,1.093507,0.771961,3.483843,2.573997,0.623446,1.095904,0.713104,4.266438,2.916934,0.691205,1.344720,0.579235,3.040164,2.478100,0.376934,0.583188,0.660383,12.627065,5.526291,2.814790,4.020791,11.372185,11.830306,5.156664,0.769130,1.032905,0.636911,12.095777,3.474812,0.980159,0.935301,0.411885,45.956623,10.795641,1.247053,1.560727,0.737315,25.169188,4.245381,1.126265,0.834258,0.553294
1606521676.794221,103.000000,0.000000,4286.410156,4578.077148,4297.820313,6040.512695,4221.153809,4258.333496,4246.538574,4240.769043,4243.974121,4273.846191,4339.615234,4302.563965,4598.589844,4307.820313,3554.000000,3.000000,,,,0.000000,4.000000,4.000000,4.000000,4.000000,4.000000,4.000000,4.000000,4.000000,4.000000,4.000000,4.000000,4.000000,4.000000,4.000000,100.000000,,,,,,,,,,,,,,,,,,,,,,,,,,,,,,,,,,,,,,,,,,,,,,,,,,,,,,,,,,,,,,,,,,,,,,,,,,,,,,,,,,
1606521676.802117,104.000000,0.000000,4305.384766,4578.974121,4306.922852,6230.897461,4219.487305,4255.256348,4260.256348,4252.948730,4254.358887,4298.589844,4350.000000,4319.615234,4632.051270,4328.974121,3514.000000,3.000000,,,,0.000000,4.000000,4.000000,4.000000,4.000000,4.000000,4.000000,4.000000,4.000000,4.000000,4.000000,4.000000,4.000000,4.000000,4.000000,100.000000,26.000000,0.000000,0.698329,-0.369995,-0.589050,-0.168701,0.995621,-0.373053,-0.010742,-35.889221,-120.827042,11.963073,,,,,,,,,,,,,,,,,,,,,,,,,,,,,,,,,,,,,,,,,,,,,,,,,,,,,,,,,,,,,,,,,,,,,,
1606521676.809813,105.000000,0.000000,4289.358887,4568.717773,4296.410156,6387.948730,4248.333496,4243.461426,4254.102539,4243.974121,4254.230957,4289.487305,4343.461426,4306.922852,4612.436035,4319.102539,3218.000000,3.000000,,,,0.000000,4.000000,4.000000,4.000000,4.000000,4.000000,4.000000,4.000000,4.000000,4.000000,4.000000,4.000000,4.000000,4.000000,4.000000,100.000000,,,,,,,,,,,,,,,,,,,,,,,,,,,,,,,,,,,,,,,,,,,,,,,,,,,,,,,,,,,,,,,,,,,,,,,,,,,,,,,,,,
1606521676.817509,106.000000,0.000000,4275.384766,4573.461426,4291.538574,6537.436035,4235.769043,4233.461426,4242.179688,4247.051270,4263.846191,4283.077148,4337.820313,4291.922852,4593.974121,4302.179688,3548.000000,3.000000,,,,0.000000,4.000000,4.000000,4.000000,4.000000,4.000000,4.000000,4.000000,4.000000,4.000000,4.000000,4.000000,4.000000,4.000000,4.000000,100.000000,,,,,,,,,,,,,,,,,,,,,,,,,,,,,,,,,,,,,,,,,,,,,,,,,,,,,,,,,,,,,,,,,,,,,,,,,,,,,,,,,,
1606521676.825305,107.000000,0.000000,4278.717773,4572.692383,4289.487305,6682.948730,4203.077148,4233.974121,4239.487305,4250.000000,4258.717773,4288.589844,4340.641113,4296.666504,4601.153809,4303.077148,3554.000000,3.000000,,,,0.000000,4.000000,4.000000,4.000000,4.000000,4.000000,4.000000,4.000000,4.000000,4.000000,4.000000,4.000000,4.000000,4.000000,4.000000,100.000000,,,,,,,,,,,,,,,,,,,,,,,,,,,,,,,,,,,,,,,,,,,,,,,,,,,,,,,,,,,,,,,,,,,,,,,,,,,,,,,,,,
1606521676.833201,108.000000,0.000000,4267.820313,4559.615234,4272.948730,6803.846191,4190.000000,4228.077148,4230.897461,4231.025879,4235.256348,4274.358887,4334.743652,4289.871582,4589.615234,4295.641113,3514.000000,3.000000,,,,0.000000,4.000000,4.000000,4.000000,4.000000,4.000000,4.000000,4.000000,4.000000,4.000000,4.000000,4.000000,4.000000,4.000000,4.000000,100.000000,27.000000,0.000000,0.700083,-0.362976,-0.591919,-0.166626,0.969741,-0.363287,0.019043,-37.534142,-119.331657,11.215381,,,,,,,,,,,,,,,,,,,,,,,,,,,,,,,,,,,,,,,,,,,,,,,,,,,,,,,,,,,,,,,,,,,,,,
1606521676.841096,109.000000,0.000000,4245.128418,4545.769043,4253.589844,6891.025879,4181.666504,4207.051270,4211.153809,4209.615234,4221.666504,4249.230957,4316.153809,4269.871582,4561.153809,4272.820313,3218.000000,3.000000,,,,0.000000,4.000000,4.000000,4.000000,4.000000,4.000000,4.000000,4.000000,4.000000,4.000000,4.000000,4.000000,4.000000,4.000000,4.000000,100.000000,,,,,,,,,,,,,,,,,,,,,,,,,,,,,,,,,,,,,,,,,,,,,,,,,,,,,,,,,,,,,,,,,,,,,,,,,,,,,,,,,,
1606521676.848992,110.000000,0.000000,4248.846191,4550.512695,4259.102539,6964.102539,4184.743652,4216.282227,4218.333496,4220.000000,4230.641113,4253.846191,4323.846191,4276.025879,4561.282227,4274.102539,3548.000000,3.000000,,,,0.000000,4.000000,4.000000,4.000000,4.000000,4.000000,4.000000,4.000000,4.000000,4.000000,4.000000,4.000000,4.000000,4.000000,4.000000,100.000000,,,,,,,,,,,,,,,,,,,,,,,,,,,,,,,,,,,,,,,,,,,,,,,,,,,,,,,,,,,,,,,,,,,,,,,,,,,,,,,,,,
1606521676.856788,111.000000,0.000000,4285.128418,4592.948730,4292.179688,7044.358887,4217.307617,4260.897461,4261.410156,4257.563965,4258.461426,4281.282227,4362.179688,4310.000000,4592.051270,4309.871582,3554.000000,3.000000,,,,0.000000,4.000000,4.000000,4.000000,4.000000,4.000000,4.000000,4.000000,4.000000,4.000000,4.000000,4.000000,4.000000,4.000000,4.000000,100.000000,,,,,,,,,,,,,,,,,,,,,,,,,,,,,,,,,,,,,,,,,,,,,,,,,,,,,,,,,,,,,,,,,,,,,,,,,,,,,,,,,,
1606521676.864484,112.000000,0.000000,4316.410156,4637.179688,4323.846191,7095.384766,4255.769043,4282.948730,4293.589844,4295.256348,4293.717773,4312.820313,4400.256348,4337.820313,4626.025879,4344.871582,3514.000000,3.000000,,,,0.000000,4.000000,4.000000,4.000000,4.000000,4.000000,4.000000,4.000000,4.000000,4.000000,4.000000,4.000000,4.000000,4.000000,4.000000,100.000000,28.000000,0.000000,0.700581,-0.360779,-0.592896,-0.165833,0.983413,-0.334478,-0.006836,-36.487373,-118.733498,12.561227,,,,,,,,,,,,,,,,,,,,,,,,,,,,,,,,,,,,,,,,,,,,,,,,,,,,,,,,,,,,,,,,,,,,,,
1606521676.872180,113.000000,0.000000,4316.794922,4653.461426,4328.205078,7091.794922,4273.333496,4283.974121,4295.128418,4311.922852,4310.897461,4335.256348,4415.384766,4342.563965,4631.538574,4353.974121,3218.000000,3.000000,,,,0.000000,4.000000,4.000000,4.000000,4.000000,4.000000,4.000000,4.000000,4.000000,4.000000,4.000000,4.000000,4.000000,4.000000,4.000000,100.000000,,,,,,,,,,,,,,,,,,,,,,,,,,,,,,,,,,,,,,,,,,,,,,,,,,,,,,,,,,,,,,,,,,,,,,,,,,,,,,,,,,
1606521676.879875,114.000000,0.000000,4316.794922,4661.922852,4329.230957,7059.230957,4271.538574,4301.538574,4301.922852,4311.538574,4312.179688,4340.769043,4416.282227,4345.641113,4620.897461,4359.230957,3548.000000,3.000000,,,,0.000000,4.000000,4.000000,4.000000,4.000000,4.000000,4.000000,4.000000,4.000000,4.000000,4.000000,4.000000,4.000000,4.000000,4.000000,100.000000,,,,,,,,,,,,,,,,,,,,,,,,,,,,,,,,,,,,,,,,,,,,,,,,,,,,,,,,,,,,,,,,,,,,,,,,,,,,,,,,,,
1606521676.887671,115.000000,0.000000,4330.512695,4669.230957,4340.769043,7001.282227,4267.820313,4311.410156,4315.512695,4316.666504,4317.948730,4339.615234,4420.641113,4355.000000,4622.436035,4371.922852,3554.000000,3.000000,,,,0.000000,4.000000,4.000000,4.000000,4.000000,4.000000,4.000000,4.000000,4.000000,4.000000,4.000000,4.000000,4.000000,4.000000,4.000000,100.000000,,,,,,,,,,,,,,,,,,,,,,,,,,,,,,,,,,,,,,,,,,,,,,,,,,,,,,,,,,,,,,,,,,,,,,,,,,,,,,,,,,
1606521676.895367,116.000000,0.000000,4328.589844,4660.384766,4336.025879,6910.384766,4269.871582,4302.948730,4312.563965,4326.794922,4321.025879,4333.461426,4416.410156,4349.743652,4615.384766,4367.051270,3514.000000,3.000000,,,,0.000000,4.000000,4.000000,4.000000,4.000000,4.000000,4.000000,4.000000,4.000000,4.000000,4.000000,4.000000,4.000000,4.000000,4.000000,100.000000,29.000000,0.000000,0.700903,-0.357422,-0.595154,-0.163635,0.991714,-0.315923,-0.016114,-38.580910,-121.425194,13.308919,,,,,,,,,,,,,,,,,,,,,,,,,,,,,,,,,,,,,,,,,,,,,,,,,,,,,,,,,,,,,,,,,,,,,,
1606521676.903062,117.000000,0.000000,4324.487305,4655.769043,4324.358887,6816.025879,4283.717773,4311.025879,4312.563965,4328.974121,4320.512695,4330.512695,4404.871582,4339.615234,4595.384766,4353.333496,3218.000000,3.000000,,,,0.000000,4.000000,4.000000,4.000000,4.000000,4.000000,4.000000,4.000000,4.000000,4.000000,4.000000,4.000000,4.000000,4.000000,4.000000,100.000000,,,,,,,,,,,,,,,,,,,,,,,,,,,,,,,,,,,,,,,,,,,,,,,,,,,,,,,,,,,,,,,,,,,,,,,,,,,,,,,,,,
1606521676.910758,118.000000,0.000000,4331.153809,4663.333496,4326.666504,6715.512695,4290.256348,4325.128418,4317.692383,4313.717773,4313.717773,4329.102539,4400.641113,4340.641113,4587.179688,4350.512695,3548.000000,3.000000,,,,0.000000,4.000000,4.000000,4.000000,4.000000,4.000000,4.000000,4.000000,4.000000,4.000000,4.000000,4.000000,4.000000,4.000000,4.000000,100.000000,,,,,,,,,,,,,16.440050,5.345060,0.783390,0.784329,0.432481,22.386759,2.729170,1.076748,1.111014,0.958166,13.078541,5.311728,0.934311,0.950444,0.508839,26.298149,3.508450,0.659985,1.005602,0.575385,8.387675,6.380612,1.919099,4.443035,6.184156,6.786640,2.710647,0.861357,1.064123,0.719760,5.313986,3.506881,0.779118,1.106779,0.807707,5.193617,3.801547,0.819090,1.397315,0.623660,3.970022,3.110582,0.488815,0.602299,0.726114,16.246891,5.945957,2.988954,3.517953,8.927114,15.001219,6.110930,0.816724,1.108564,0.662230,14.585308,4.243743,1.106831,0.971211,0.422173,58.091866,12.225419,1.460732,1.642521,0.807875,28.160425,4.764737,1.237561,0.869366,0.611380
1606521676.918554,119.000000,0.000000,4330.384766,4646.538574,4326.282227,6588.974121,4257.307617,4300.641113,4305.897461,4292.563965,4293.589844,4319.102539,4393.846191,4336.538574,4577.307617,4344.871582,3554.000000,3.000000,,,,0.000000,4.000000,4.000000,4.000000,4.000000,4.000000,4.000000,4.000000,4.000000,4.000000,4.000000,4.000000,4.000000,4.000000,4.000000,100.000000,,,,,,,,,,,,,,,,,,,,,,,,,,,,,,,,,,,,,,,,,,,,,,,,,,,,,,,,,,,,,,,,,,,,,,,,,,,,,,,,,,
1606521676.926450,120.000000,0.000000,4333.205078,4623.333496,4326.410156,6452.179688,4230.769043,4277.692383,4303.333496,4297.436035,4291.153809,4313.589844,4386.538574,4334.102539,4562.436035,4339.871582,3514.000000,3.000000,,,,0.000000,4.000000,4.000000,4.000000,4.000000,4.000000,4.000000,4.000000,4.000000,4.000000,4.000000,4.000000,4.000000,4.000000,4.000000,100.000000,30.000000,0.000000,0.700583,-0.355286,-0.597717,-0.160278,0.999527,-0.307622,-0.013184,-37.085526,-120.079346,12.710765,,,,,,,,,,,,,,,,,,,,,,,,,,,,,,,,,,,,,,,,,,,,,,,,,,,,,,,,,,,,,,,,,,,,,,
1606521676.934345,121.000000,0.000000,4335.641113,4614.615234,4322.436035,6299.487305,4238.974121,4290.769043,4302.948730,4297.436035,4291.794922,4307.692383,4376.025879,4334.358887,4547.563965,4331.922852,3218.000000,3.000000,,,,0.000000,4.000000,4.000000,4.000000,4.000000,4.000000,4.000000,4.000000,4.000000,4.000000,4.000000,4.000000,4.000000,4.000000,4.000000,100.000000,,,,,,,,,,,,,,,,,,,,,,,,,,,,,,,,,,,,,,,,,,,,,,,,,,,,,,,,,,,,,,,,,,,,,,,,,,,,,,,,,,
1606521676.942241,122.000000,0.000000,4317.563965,4598.846191,4302.179688,6127.307617,4221.025879,4279.230957,4273.974121,4266.410156,4266.025879,4294.487305,4354.743652,4319.487305,4521.282227,4308.205078,3548.000000,3.000000,,,,0.000000,4.000000,4.000000,4.000000,4.000000,4.000000,4.000000,4.000000,4.000000,4.000000,4.000000,4.000000,4.000000,4.000000,4.000000,100.000000,,,,,,,,,,,,,,,,,,,,,,,,,,,,,,,,,,,,,,,,,,,,,,,,,,,,,,,,,,,,,,,,,,,,,,,,,,,,,,,,,,
1606521676.950237,123.000000,0.000000,4304.358887,4578.333496,4290.384766,5967.179688,4181.666504,4227.051270,4246.666504,4240.384766,4240.384766,4271.410156,4335.000000,4303.589844,4495.769043,4291.025879,3554.000000,3.000000,,,,0.000000,4.000000,4.000000,4.000000,4.000000,4.000000,4.000000,4.000000,4.000000,4.000000,4.000000,4.000000,4.000000,4.000000,4.000000,100.000000,,,,,,,,,,,,,,,,,,,,,,,,,,,,,,,,,,,,,,,,,,,,,,,,,,,,,,,,,,,,,,,,,,,,,,,,,,,,,,,,,,
1606521676.957932,124.000000,0.000000,4306.410156,4561.666504,4289.358887,5825.641113,4183.461426,4208.077148,4239.230957,4228.461426,4229.487305,4244.230957,4318.077148,4296.025879,4476.794922,4283.205078,3514.000000,3.000000,,,,0.000000,4.000000,4.000000,4.000000,4.000000,4.000000,4.000000,4.000000,4.000000,4.000000,4.000000,4.000000,4.000000,4.000000,4.000000,100.000000,31.000000,0.000000,0.699663,-0.357483,-0.597778,-0.159180,0.981949,-0.330571,-0.019532,-36.337833,-120.527962,12.411689,,,,,,,,,,,,,,,,,,,,,,,,,,,,,,,,,,,,,,,,,,,,,,,,,,,,,,,,,,,,,,,,,,,,,,
1606521676.965628,125.000000,0.000000,4292.563965,4533.205078,4266.666504,5685.769043,4180.384766,4219.102539,4221.666504,4204.487305,4217.179688,4227.436035,4292.179688,4279.743652,4442.307617,4262.051270,3218.000000,3.000000,,,,0.000000,4.000000,4.000000,4.000000,4.000000,4.000000,4.000000,4.000000,4.000000,4.000000,4.000000,4.000000,4.000000,4.000000,4.000000,100.000000,,,,,,,,,,,,,,,,,,,,,,,,,,,,,,,,,,,,,,,,,,,,,,,,,,,,,,,,,,,,,,,,,,,,,,,,,,,,,,,,,,
1606521676.973324,126.000000,0.000000,4275.641113,4504.358887,4242.820313,5553.974121,4134.871582,4197.179688,4194.358887,4177.948730,4200.256348,4216.410156,4272.563965,4258.717773,4410.897461,4241.794922,3548.000000,3.000000,,,,0.000000,4.000000,4.000000,4.000000,4.000000,4.000000,4.000000,4.000000,4.000000,4.000000,4.000000,4.000000,4.000000,4.000000,4.000000,100.000000,,,,,,,,,,,,,,,,,,,,,,,,,,,,,,,,,,,,,,,,,,,,,,,,,,,,,,,,,,,,,,,,,,,,,,,,,,,,,,,,,,
1606521676.981319,127.000000,0.000000,4275.641113,4493.717773,4240.641113,5436.794922,4134.102539,4179.615234,4184.487305,4168.846191,4187.307617,4204.230957,4264.230957,4251.025879,4403.461426,4238.077148,52.000000,3.000000,,,,0.000000,4.000000,4.000000,4.000000,4.000000,4.000000,4.000000,4.000000,4.000000,4.000000,4.000000,4.000000,4.000000,4.000000,4.000000,100.000000,,,,,,,,,,,,,,,,,,,,,,,,,,,,,,,,,,,,,,,,,,,,,,,,,,,,,,,,,,,,,,,,,,,,,,,,,,,,,,,,,,
1606521676.989215,0.000000,0.000000,4271.410156,4491.538574,4237.948730,5337.948730,4158.333496,4189.743652,4182.820313,4166.282227,4180.128418,4192.563965,4252.179688,4249.871582,4395.128418,4232.436035,3414.000000,3.000000,,,,0.000000,4.000000,4.000000,4.000000,4.000000,4.000000,4.000000,4.000000,4.000000,4.000000,4.000000,4.000000,4.000000,4.000000,4.000000,100.000000,0.000000,0.000000,0.698301,-0.362610,-0.596069,-0.159973,0.981460,-0.328130,-0.028321,-36.038757,-120.677498,14.056611,,,,,,,,,,,,,,,,,,,,,,,,,,,,,,,,,,,,,,,,,,,,,,,,,,,,,,,,,,,,,,,,,,,,,,
1606521676.996911,1.000000,0.000000,4266.794922,4490.769043,4234.230957,5262.307617,4130.512695,4179.230957,4177.948730,4166.282227,4184.615234,4190.128418,4247.051270,4245.128418,4384.102539,4226.282227,3483.000000,3.000000,,,,0.000000,4.000000,4.000000,4.000000,4.000000,4.000000,4.000000,4.000000,4.000000,4.000000,4.000000,4.000000,4.000000,4.000000,4.000000,100.000000,,,,,,,,,,,,,,,,,,,,,,,,,,,,,,,,,,,,,,,,,,,,,,,,,,,,,,,,,,,,,,,,,,,,,,,,,,,,,,,,,,
1606521677.004607,2.000000,0.000000,4263.974121,4470.769043,4230.897461,5179.743652,4111.794922,4162.948730,4174.102539,4165.256348,4182.692383,4185.256348,4239.102539,4231.153809,4367.307617,4216.282227,3374.000000,3.000000,,,,0.000000,4.000000,4.000000,4.000000,4.000000,4.000000,4.000000,4.000000,4.000000,4.000000,4.000000,4.000000,4.000000,4.000000,4.000000,100.000000,,,,,,,,,,,,,,,,,,,,,,,,,,,,,,,,,,,,,,,,,,,,,,,,,,,,,,,,,,,,,,,,,,,,,,,,,,,,,,,,,,
1606521677.012403,3.000000,0.000000,4253.461426,4439.615234,4220.384766,5087.436035,4131.153809,4167.179688,4170.384766,4157.051270,4168.461426,4177.051270,4223.974121,4220.512695,4347.307617,4200.641113,3553.000000,3.000000,,,,0.000000,4.000000,4.000000,4.000000,4.000000,4.000000,4.000000,4.000000,4.000000,4.000000,4.000000,4.000000,4.000000,4.000000,4.000000,100.000000,,,,,,,,,,,,,,,,,,,,,,,,,,,,,,,,,,,,,,,,,,,,,,,,,,,,,,,,,,,,,,,,,,,,,,,,,,,,,,,,,,
1606521677.020099,4.000000,0.000000,4237.179688,4427.179688,4207.051270,5008.205078,4117.051270,4165.000000,4159.615234,4143.589844,4157.820313,4169.230957,4216.922852,4214.358887,4336.794922,4188.205078,3651.000000,3.000000,,,,0.000000,4.000000,4.000000,4.000000,4.000000,4.000000,4.000000,4.000000,4.000000,4.000000,4.000000,4.000000,4.000000,4.000000,4.000000,100.000000,1.000000,0.000000,0.696899,-0.367859,-0.594360,-0.160461,0.977066,-0.283207,-0.020020,-36.337833,-122.023346,12.710765,,,,,,,,,,,,,,,,,,,,,,,,,,,,,,,,,,,,,,,,,,,,,,,,,,,,,,,,,,,,,,,,,,,,,,
1606521677.027795,5.000000,0.000000,4219.358887,4413.205078,4191.538574,4929.743652,4082.564209,4145.128418,4138.077148,4120.384766,4135.641113,4148.077148,4196.153809,4191.282227,4306.922852,4161.538574,3512.000000,3.000000,,,,0.000000,4.000000,4.000000,4.000000,4.000000,4.000000,4.000000,4.000000,4.000000,4.000000,4.000000,4.000000,4.000000,4.000000,4.000000,100.000000,,,,,,,,,,,,,,,,,,,,,,,,,,,,,,,,,,,,,,,,,,,,,,,,,,,,,,,,,,,,,,,,,,,,,,,,,,,,,,,,,,
1606521677.035491,6.000000,0.000000,4211.025879,4401.922852,4183.333496,4857.307617,4088.333252,4136.922852,4132.436035,4106.922852,4117.563965,4132.820313,4167.692383,4173.461426,4259.743652,4134.743652,3475.000000,3.000000,,,,0.000000,4.000000,4.000000,4.000000,4.000000,4.000000,4.000000,4.000000,4.000000,4.000000,4.000000,4.000000,4.000000,4.000000,4.000000,100.000000,,,,,,,,,,,,,18.567286,5.855066,0.948241,0.802514,0.522144,26.538332,3.729270,1.507559,0.955611,1.058345,15.590090,5.861537,1.120443,1.014310,0.590518,57.352066,4.023480,0.933296,1.010451,0.622322,9.289505,6.093311,2.036184,3.069712,4.918830,8.564638,3.325262,1.004112,1.051299,0.690584,7.253367,4.383869,0.987352,1.069237,0.889209,6.267525,4.569448,1.079026,1.375405,0.649965,5.101921,3.664215,0.650728,0.615126,0.765891,19.139215,5.991681,3.010421,3.012748,6.264720,17.631702,6.702141,0.911929,1.145891,0.732389,16.324337,4.753013,1.225321,0.992965,0.470776,67.040665,12.564424,1.644107,1.634064,0.902685,29.855803,5.181720,1.326873,0.890283,0.696971
1606521677.043286,7.000000,0.000000,4214.871582,4409.743652,4188.333496,4810.000000,4103.077148,4153.333496,4150.384766,4121.538574,4132.948730,4145.000000,4166.538574,4181.282227,4244.102539,4135.256348,3353.000000,3.000000,,,,0.000000,4.000000,4.000000,4.000000,4.000000,4.000000,4.000000,4.000000,4.000000,4.000000,4.000000,4.000000,4.000000,4.000000,4.000000,100.000000,,,,,,,,,,,,,,,,,,,,,,,,,,,,,,,,,,,,,,,,,,,,,,,,,,,,,,,,,,,,,,,,,,,,,,,,,,,,,,,,,,
1606521677.050982,8.000000,0.000000,4218.974121,4407.692383,4192.051270,4761.666504,4108.974121,4171.153809,4162.436035,4140.000000,4151.025879,4164.871582,4178.077148,4189.102539,4255.000000,4138.589844,3241.000000,3.000000,,,,0.000000,4.000000,4.000000,4.000000,4.000000,4.000000,4.000000,4.000000,4.000000,4.000000,4.000000,4.000000,4.000000,4.000000,4.000000,100.000000,2.000000,0.000000,0.695459,-0.371704,-0.593933,-0.159424,0.959976,-0.335943,-0.039063,-37.534142,-120.827042,11.963073,,,,,,,,,,,,,,,,,,,,,,,,,,,,,,,,,,,,,,,,,,,,,,,,,,,,,,,,,,,,,,,,,,,,,,
1606521677.058878,9.000000,0.000000,4214.102539,4385.128418,4185.641113,4692.563965,4138.589844,4163.205078,4156.538574,4134.358887,4143.974121,4162.051270,4168.461426,4180.128418,4247.563965,4126.153809,3569.000000,3.000000,,,,0.000000,4.000000,4.000000,4.000000,4.000000,4.000000,4.000000,4.000000,4.000000,4.000000,4.000000,4.000000,4.000000,4.000000,4.000000,100.000000,,,,,,,,,,,,,,,,,,,,,,,,,,,,,,,,,,,,,,,,,,,,,,,,,,,,,,,,,,,,,,,,,,,,,,,,,,,,,,,,,,
1606521677.066774,10.000000,0.000000,4205.897461,4363.461426,4176.794922,4626.922852,4167.563965,4139.102539,4147.051270,4123.077148,4136.153809,4145.769043,4149.743652,4168.205078,4219.871582,4111.922852,3586.000000,3.000000,,,,0.000000,4.000000,4.000000,4.000000,4.000000,4.000000,4.000000,4.000000,4.000000,4.000000,4.000000,4.000000,4.000000,4.000000,4.000000,100.000000,,,,,,,,,,,,,,,,,,,,,,,,,,,,,,,,,,,,,,,,,,,,,,,,,,,,,,,,,,,,,,,,,,,,,,,,,,,,,,,,,,
1606521677.074570,11.000000,0.000000,4191.282227,4332.436035,4160.512695,4563.077148,4144.487305,4125.256348,4132.307617,4103.461426,4117.692383,4120.897461,4125.128418,4149.743652,4182.692383,4083.333252,3572.000000,3.000000,,,,0.000000,4.000000,4.000000,4.000000,4.000000,4.000000,4.000000,4.000000,4.000000,4.000000,4.000000,4.000000,4.000000,4.000000,4.000000,100.000000,,,,,,,,,,,,,,,,,,,,,,,,,,,,,,,,,,,,,,,,,,,,,,,,,,,,,,,,,,,,,,,,,,,,,,,,,,,,,,,,,,
1606521677.082265,12.000000,0.000000,4176.794922,4294.358887,4141.666504,4495.128418,4099.358887,4109.358887,4113.333496,4075.512939,4086.281982,4091.666748,4098.333496,4126.666504,4154.102539,4053.846191,3538.000000,3.000000,,,,0.000000,4.000000,4.000000,4.000000,4.000000,4.000000,4.000000,4.000000,4.000000,4.000000,4.000000,4.000000,4.000000,4.000000,4.000000,100.000000,3.000000,0.000000,0.693909,-0.375854,-0.593445,-0.158264,0.945327,-0.334966,-0.032715,-36.786449,-122.023346,13.458457,,,,,,,,,,,,,,,,,,,,,,,,,,,,,,,,,,,,,,,,,,,,,,,,,,,,,,,,,,,,,,,,,,,,,,
1606521677.089961,13.000000,0.000000,4169.871582,4275.897461,4128.589844,4442.436035,4083.461426,4090.641113,4105.000000,4074.615479,4082.179443,4083.974365,4088.076904,4117.820313,4142.436035,4050.512939,3237.000000,3.000000,,,,0.000000,4.000000,4.000000,4.000000,4.000000,4.000000,4.000000,4.000000,4.000000,4.000000,4.000000,4.000000,4.000000,4.000000,4.000000,100.000000,,,,,,,,,,,,,,,,,,,,,,,,,,,,,,,,,,,,,,,,,,,,,,,,,,,,,,,,,,,,,,,,,,,,,,,,,,,,,,,,,,
1606521677.097657,14.000000,0.000000,4166.538574,4275.897461,4122.948730,4409.743652,4083.589844,4088.205078,4104.871582,4087.179443,4094.102539,4091.153809,4088.589844,4120.256348,4135.897461,4053.718018,3586.000000,3.000000,,,,0.000000,4.000000,4.000000,4.000000,4.000000,4.000000,4.000000,4.000000,4.000000,4.000000,4.000000,4.000000,4.000000,4.000000,4.000000,100.000000,,,,,,,,,,,,,,,,,,,,,,,,,,,,,,,,,,,,,,,,,,,,,,,,,,,,,,,,,,,,,,,,,,,,,,,,,,,,,,,,,,
1606521677.105453,15.000000,0.000000,4169.487305,4278.974121,4123.846191,4383.974121,4078.205078,4092.051270,4100.000000,4080.769287,4091.794922,4093.974365,4091.923096,4123.846191,4138.205078,4054.487061,3572.000000,3.000000,,,,0.000000,4.000000,4.000000,4.000000,4.000000,4.000000,4.000000,4.000000,4.000000,4.000000,4.000000,4.000000,4.000000,4.000000,4.000000,100.000000,,,,,,,,,,,,,,,,,,,,,,,,,,,,,,,,,,,,,,,,,,,,,,,,,,,,,,,,,,,,,,,,,,,,,,,,,,,,,,,,,,
1606521677.113348,16.000000,0.000000,4165.512695,4266.922852,4120.897461,4349.358887,4063.718018,4095.769287,4092.948730,4071.025635,4086.923096,4087.435791,4089.487061,4119.358887,4140.641113,4054.743652,0.000000,3.000000,,,,0.000000,4.000000,4.000000,4.000000,4.000000,4.000000,4.000000,4.000000,4.000000,4.000000,4.000000,4.000000,4.000000,4.000000,4.000000,100.000000,4.000000,0.000000,0.693203,-0.377991,-0.592896,-0.158325,0.952651,-0.363287,-0.037598,-37.384605,-121.126114,12.262150,,,,,,,,,,,,,,,,,,,,,,,,,,,,,,,,,,,,,,,,,,,,,,,,,,,,,,,,,,,,,,,,,,,,,,
1606521677.121244,17.000000,0.000000,4156.666504,4256.666504,4118.461426,4317.563965,4055.512939,4098.205078,4091.153809,4076.538574,4089.487061,4082.307617,4083.718018,4114.358887,4135.256348,4053.589844,0.000000,3.000000,,,,0.000000,4.000000,4.000000,4.000000,4.000000,4.000000,4.000000,4.000000,4.000000,4.000000,4.000000,4.000000,4.000000,4.000000,4.000000,100.000000,,,,,,,,,,,,,,,,,,,,,,,,,,,,,,,,,,,,,,,,,,,,,,,,,,,,,,,,,,,,,,,,,,,,,,,,,,,,,,,,,,
1606521677.129140,18.000000,0.000000,4164.743652,4270.897461,4123.461426,4298.589844,4068.718018,4098.461426,4095.641113,4086.923096,4099.230957,4095.897461,4087.948730,4121.794922,4137.820313,4059.871826,0.000000,3.000000,,,,0.000000,4.000000,4.000000,4.000000,4.000000,4.000000,4.000000,4.000000,4.000000,4.000000,4.000000,4.000000,4.000000,4.000000,4.000000,100.000000,,,,,,,,,,,,,,,,,,,,,,,,,,,,,,,,,,,,,,,,,,,,,,,,,,,,,,,,,,,,,,,,,,,,,,,,,,,,,,,,,,
1606521677.137135,19.000000,0.000000,4169.102539,4274.743652,4120.256348,4267.948730,4081.153809,4107.051270,4097.692383,4091.923096,4105.384766,4108.077148,4093.846191,4126.025879,4140.128418,4063.205078,0.000000,3.000000,,,,0.000000,4.000000,4.000000,4.000000,4.000000,4.000000,4.000000,4.000000,4.000000,4.000000,4.000000,4.000000,4.000000,4.000000,4.000000,100.000000,,,,,,,,,,,,,,,,,,,,,,,,,,,,,,,,,,,,,,,,,,,,,,,,,,,,,,,,,,,,,,,,,,,,,,,,,,,,,,,,,,
1606521677.145031,20.000000,0.000000,4154.487305,4248.333496,4106.538574,4221.538574,4061.025635,4110.512695,4092.307617,4085.769287,4093.718018,4095.641113,4084.871826,4116.666504,4124.230957,4048.461426,0.000000,3.000000,,,,0.000000,4.000000,4.000000,4.000000,4.000000,4.000000,4.000000,4.000000,4.000000,4.000000,4.000000,4.000000,4.000000,4.000000,4.000000,100.000000,5.000000,0.000000,0.692547,-0.379822,-0.592590,-0.157959,0.946792,-0.352056,-0.034180,-37.683681,-121.126114,11.813535,,,,,,,,,,,,,,,,,,,,,,,,,,,,,,,,,,,,,,,,,,,,,,,,,,,,,,,,,,,,,,,,,,,,,,
1606521677.152927,21.000000,0.000000,4148.717773,4232.948730,4102.307617,4187.948730,4033.205078,4099.230957,4090.000000,4080.128174,4089.230713,4086.666748,4077.692383,4112.436035,4116.153809,4039.358887,0.000000,3.000000,,,,0.000000,4.000000,4.000000,4.000000,4.000000,4.000000,4.000000,4.000000,4.000000,4.000000,4.000000,4.000000,4.000000,4.000000,4.000000,100.000000,,,,,,,,,,,,,,,,,,,,,,,,,,,,,,,,,,,,,,,,,,,,,,,,,,,,,,,,,,,,,,,,,,,,,,,,,,,,,,,,,,
1606521677.160822,22.000000,0.000000,4154.230957,4231.794922,4104.743652,4165.128418,4041.538574,4100.897461,4093.461426,4084.743652,4098.974121,4094.230713,4081.923096,4115.256348,4121.025879,4044.358887,0.000000,3.000000,,,,0.000000,4.000000,4.000000,4.000000,4.000000,4.000000,4.000000,4.000000,4.000000,4.000000,4.000000,4.000000,4.000000,4.000000,4.000000,100.000000,,,,,,,,,,,,,19.316200,6.134267,1.174656,0.808892,0.641162,29.943401,5.559170,2.057843,0.829467,1.259335,17.020393,6.067254,1.351057,1.049169,0.710299,141.365784,4.497643,1.401093,1.094656,0.665753,10.340320,5.791595,2.297931,2.253428,4.106259,10.332300,4.099580,1.160310,1.019391,0.684693,9.286284,5.204533,1.257943,1.001923,0.951453,7.861610,5.207286,1.453832,1.308162,0.652577,6.649742,4.168069,0.847495,0.634980,0.770385,21.092405,5.921305,2.870888,2.487965,3.999886,19.296434,7.059964,1.122002,1.124419,0.816707,16.868998,5.052184,1.386393,0.979678,0.541494,70.262215,12.283904,1.925725,1.519495,0.990073,29.605198,5.785693,1.477004,0.881975,0.789784
1606521677.168618,23.000000,0.000000,4154.743652,4218.974121,4106.666504,4134.358887,4057.435791,4113.077148,4094.230713,4085.512939,4096.666504,4096.922852,4085.256348,4114.871582,4117.436035,4044.871826,0.000000,3.000000,,,,0.000000,4.000000,4.000000,4.000000,4.000000,4.000000,4.000000,4.000000,4.000000,4.000000,4.000000,4.000000,4.000000,4.000000,4.000000,100.000000,,,,,,,,,,,,,,,,,,,,,,,,,,,,,,,,,,,,,,,,,,,,,,,,,,,,,,,,,,,,,,,,,,,,,,,,,,,,,,,,,,
1606521677.176314,24.000000,0.000000,4168.589844,4216.153809,4122.692383,4112.307617,4049.230713,4111.282227,4100.128418,4091.410156,4099.230957,4104.230957,4099.487305,4129.487305,4123.846191,4059.230713,0.000000,3.000000,,,,0.000000,4.000000,4.000000,4.000000,4.000000,4.000000,4.000000,4.000000,4.000000,4.000000,4.000000,4.000000,4.000000,4.000000,4.000000,100.000000,6.000000,0.000000,0.692084,-0.381348,-0.592102,-0.158142,0.954604,-0.378424,-0.021485,-36.337833,-122.322426,12.411689,,,,,,,,,,,,,,,,,,,,,,,,,,,,,,,,,,,,,,,,,,,,,,,,,,,,,,,,,,,,,,,,,,,,,,
1606521677.184010,25.000000,0.000000,4192.692383,4233.717773,4146.538574,4104.615234,4057.564209,4120.000000,4118.461426,4111.153809,4118.205078,4126.666504,4124.615234,4157.563965,4149.102539,4089.871826,0.000000,3.000000,,,,0.000000,4.000000,4.000000,4.000000,4.000000,4.000000,4.000000,4.000000,4.000000,4.000000,4.000000,4.000000,4.000000,4.000000,4.000000,100.000000,,,,,,,,,,,,,,,,,,,,,,,,,,,,,,,,,,,,,,,,,,,,,,,,,,,,,,,,,,,,,,,,,,,,,,,,,,,,,,,,,,
1606521677.191706,26.000000,0.000000,4204.358887,4247.948730,4161.410156,4092.435791,4096.794922,4150.000000,4130.769043,4124.615234,4132.820313,4149.230957,4142.692383,4171.794922,4167.692383,4112.563965,0.000000,3.000000,,,,0.000000,4.000000,4.000000,4.000000,4.000000,4.000000,4.000000,4.000000,4.000000,4.000000,4.000000,4.000000,4.000000,4.000000,4.000000,100.000000,,,,,,,,,,,,,,,,,,,,,,,,,,,,,,,,,,,,,,,,,,,,,,,,,,,,,,,,,,,,,,,,,,,,,,,,,,,,,,,,,,
1606521677.199502,27.000000,0.000000,4206.538574,4251.153809,4166.025879,4076.153809,4106.794922,4158.461426,4128.205078,4114.743652,4131.794922,4158.974121,4152.051270,4172.948730,4172.563965,4119.871582,0.000000,3.000000,,,,0.000000,4.000000,4.000000,4.000000,4.000000,4.000000,4.000000,4.000000,4.000000,4.000000,4.000000,4.000000,4.000000,4.000000,4.000000,100.000000,,,,,,,,,,,,,,,,,,,,,,,,,,,,,,,,,,,,,,,,,,,,,,,,,,,,,,,,,,,,,,,,,,,,,,,,,,,,,,,,,,
1606521677.207397,28.000000,0.000000,4203.846191,4241.282227,4170.897461,4058.974365,4085.512939,4141.794922,4130.384766,4109.743652,4129.871582,4154.871582,4154.358887,4178.589844,4170.256348,4119.487305,0.000000,3.000000,,,,0.000000,4.000000,4.000000,4.000000,4.000000,4.000000,4.000000,4.000000,4.000000,4.000000,4.000000,4.000000,4.000000,4.000000,4.000000,100.000000,7.000000,0.000000,0.691776,-0.382629,-0.591553,-0.158447,0.953140,-0.350591,-0.017578,-37.534142,-121.574730,11.963073,,,,,,,,,,,,,,,,,,,,,,,,,,,,,,,,,,,,,,,,,,,,,,,,,,,,,,,,,,,,,,,,,,,,,,
1606521677.215293,29.000000,0.000000,4209.358887,4228.974121,4185.384766,4043.718018,4098.846191,4137.179688,4140.384766,4123.974121,4137.436035,4159.487305,4153.846191,4187.307617,4173.205078,4129.615234,0.000000,3.000000,,,,0.000000,4.000000,4.000000,4.000000,4.000000,4.000000,4.000000,4.000000,4.000000,4.000000,4.000000,4.000000,4.000000,4.000000,4.000000,100.000000,,,,,,,,,,,,,,,,,,,,,,,,,,,,,,,,,,,,,,,,,,,,,,,,,,,,,,,,,,,,,,,,,,,,,,,,,,,,,,,,,,
1606521677.223089,30.000000,0.000000,4219.230957,4240.512695,4189.487305,4027.948730,4114.615234,4153.333496,4136.025879,4119.102539,4140.384766,4168.589844,4158.205078,4191.025879,4186.922852,4143.589844,0.000000,3.000000,,,,0.000000,4.000000,4.000000,4.000000,4.000000,4.000000,4.000000,4.000000,4.000000,4.000000,4.000000,4.000000,4.000000,4.000000,4.000000,100.000000,,,,,,,,,,,,,,,,,,,,,,,,,,,,,,,,,,,,,,,,,,,,,,,,,,,,,,,,,,,,,,,,,,,,,,,,,,,,,,,,,,
1606521677.230984,31.000000,0.000000,4209.487305,4257.436035,4172.307617,4000.256348,4087.820557,4161.666504,4122.179688,4105.000000,4135.512695,4162.692383,4155.897461,4184.102539,4182.692383,4136.666504,0.000000,3.000000,,,,0.000000,4.000000,4.000000,4.000000,4.000000,4.000000,4.000000,4.000000,4.000000,4.000000,4.000000,4.000000,4.000000,4.000000,4.000000,100.000000,,,,,,,,,,,,,,,,,,,,,,,,,,,,,,,,,,,,,,,,,,,,,,,,,,,,,,,,,,,,,,,,,,,,,,,,,,,,,,,,,,
1606521677.238880,32.000000,0.000000,4193.717773,4251.025879,4162.948730,3973.718018,4077.564209,4153.974121,4125.000000,4112.692383,4136.410156,4162.307617,4149.487305,4178.461426,4167.051270,4126.794922,0.000000,3.000000,,,,0.000000,4.000000,4.000000,4.000000,4.000000,4.000000,4.000000,4.000000,4.000000,4.000000,4.000000,4.000000,4.000000,4.000000,4.000000,100.000000,8.000000,0.000000,0.691650,-0.382996,-0.591431,-0.158569,0.952651,-0.335454,-0.018067,-37.534142,-120.827042,10.916305,,,,,,,,,,,,,,,,,,,,,,,,,,,,,,,,,,,,,,,,,,,,,,,,,,,,,,,,,,,,,,,,,,,,,,
1606521677.246776,33.000000,0.000000,4199.743652,4241.025879,4173.846191,3964.230713,4106.282227,4153.333496,4138.333496,4122.307617,4141.794922,4182.563965,4167.692383,4185.897461,4179.743652,4143.461426,0.000000,3.000000,,,,0.000000,4.000000,4.000000,4.000000,4.000000,4.000000,4.000000,4.000000,4.000000,4.000000,4.000000,4.000000,4.000000,4.000000,4.000000,100.000000,,,,,,,,,,,,,,,,,,,,,,,,,,,,,,,,,,,,,,,,,,,,,,,,,,,,,,,,,,,,,,,,,,,,,,,,,,,,,,,,,,
1606521677.254672,34.000000,0.000000,4214.615234,4247.051270,4189.358887,3959.230713,4123.589844,4162.051270,4148.589844,4126.794922,4153.974121,4205.256348,4196.025879,4199.102539,4203.974121,4167.051270,0.000000,3.000000,,,,0.000000,4.000000,4.000000,4.000000,4.000000,4.000000,4.000000,4.000000,4.000000,4.000000,4.000000,4.000000,4.000000,4.000000,4.000000,100.000000,,,,,,,,,,,,,,,,,,,,,,,,,,,,,,,,,,,,,,,,,,,,,,,,,,,,,,,,,,,,,,,,,,,,,,,,,,,,,,,,,,
1606521677.262467,35.000000,0.000000,4216.922852,4258.077148,4199.102539,3945.256348,4125.641113,4177.179688,4158.717773,4137.436035,4168.846191,4213.333496,4202.692383,4205.384766,4204.871582,4171.922852,0.000000,3.000000,,,,0.000000,4.000000,4.000000,4.000000,4.000000,4.000000,4.000000,4.000000,4.000000,4.000000,4.000000,4.000000,4.000000,4.000000,4.000000,100.000000,,,,,,,,,,,,,,,,,,,,,,,,,,,,,,,,,,,,,,,,,,,,,,,,,,,,,,,,,,,,,,,,,,,,,,,,,,,,,,,,,,
1606521677.270163,36.000000,0.000000,4217.051270,4267.051270,4200.128418,3930.000000,4135.641113,4196.538574,4170.000000,4145.384766,4171.538574,4215.769043,4203.333496,4209.358887,4202.307617,4175.256348,0.000000,3.000000,,,,0.000000,4.000000,4.000000,4.000000,4.000000,4.000000,4.000000,4.000000,4.000000,4.000000,4.000000,4.000000,4.000000,4.000000,4.000000,100.000000,9.000000,0.000000,0.691688,-0.382996,-0.591370,-0.158630,0.946303,-0.368658,-0.000977,-37.982758,-121.275658,10.467689,,,,,,,,,,,,,,,,,,,,,,,,,,,,,,,,,,,,,,,,,,,,,,,,,,,,,,,,,,,,,,,,,,,,,,
1606521677.277859,37.000000,0.000000,4229.230957,4285.128418,4206.922852,3929.102539,4149.102539,4205.897461,4185.641113,4166.538574,4192.307617,4237.051270,4228.717773,4224.871582,4228.589844,4200.512695,0.000000,3.000000,,,,0.000000,4.000000,4.000000,4.000000,4.000000,4.000000,4.000000,4.000000,4.000000,4.000000,4.000000,4.000000,4.000000,4.000000,4.000000,100.000000,,,,,,,,,,,,,,,,,,,,,,,,,,,,,,,,,,,,,,,,,,,,,,,,,,,,,,,,,,,,,,,,,,,,,,,,,,,,,,,,,,
1606521677.285555,38.000000,0.000000,4241.538574,4300.128418,4225.897461,3935.641113,4171.666504,4229.615234,4207.436035,4202.948730,4227.307617,4267.948730,4260.897461,4245.897461,4262.051270,4230.769043,0.000000,3.000000,,,,0.000000,4.000000,4.000000,4.000000,4.000000,4.000000,4.000000,4.000000,4.000000,4.000000,4.000000,4.000000,4.000000,4.000000,4.000000,100.000000,,,,,,,,,,,,,18.345514,6.476326,1.512989,0.806915,0.772449,32.024185,8.439171,2.767252,0.773022,1.536102,16.929337,6.200892,1.657587,1.068980,0.866867,331.518829,4.987389,2.002779,1.292155,0.696368,12.499253,5.979207,2.759274,1.840529,3.787083,12.381144,5.267658,1.339855,0.953083,0.704965,11.599417,6.039139,1.587648,0.945716,1.003240,10.366820,5.834539,1.898507,1.269443,0.646077,8.778193,4.724553,1.074006,0.701180,0.745625,21.907621,6.068163,2.689791,2.033301,2.453797,19.558382,7.486814,1.546291,1.068482,0.890431,15.991139,5.347326,1.655276,0.938009,0.623954,66.135925,12.403421,2.486948,1.346017,1.056797,27.145367,7.074429,1.813491,0.855604,0.872780
1606521677.293350,39.000000,0.000000,4248.589844,4301.153809,4242.307617,3937.307617,4202.948730,4268.461426,4225.897461,4218.717773,4238.333496,4287.436035,4274.230957,4262.307617,4276.922852,4245.641113,0.000000,3.000000,,,,0.000000,4.000000,4.000000,4.000000,4.000000,4.000000,4.000000,4.000000,4.000000,4.000000,4.000000,4.000000,4.000000,4.000000,4.000000,100.000000,,,,,,,,,,,,,,,,,,,,,,,,,,,,,,,,,,,,,,,,,,,,,,,,,,,,,,,,,,,,,,,,,,,,,,,,,,,,,,,,,,
1606521677.301046,40.000000,0.000000,4258.974121,4311.922852,4253.461426,3925.128174,4217.692383,4275.128418,4236.282227,4218.461426,4245.384766,4306.922852,4280.897461,4266.794922,4282.436035,4258.717773,0.000000,3.000000,,,,0.000000,4.000000,4.000000,4.000000,4.000000,4.000000,4.000000,4.000000,4.000000,4.000000,4.000000,4.000000,4.000000,4.000000,4.000000,100.000000,10.000000,0.000000,0.691548,-0.385132,-0.589600,-0.160645,0.946792,-0.385748,-0.004883,-35.739681,-121.126114,9.869535,,,,,,,,,,,,,,,,,,,,,,,,,,,,,,,,,,,,,,,,,,,,,,,,,,,,,,,,,,,,,,,,,,,,,,
1606521677.308742,41.000000,0.000000,4256.025879,4312.051270,4247.820313,3899.743652,4202.563965,4258.846191,4233.333496,4210.000000,4241.153809,4306.282227,4276.025879,4252.692383,4273.846191,4258.974121,0.000000,3.000000,,,,0.000000,4.000000,4.000000,4.000000,4.000000,4.000000,4.000000,4.000000,4.000000,4.000000,4.000000,4.000000,4.000000,4.000000,4.000000,100.000000,,,,,,,,,,,,,,,,,,,,,,,,,,,,,,,,,,,,,,,,,,,,,,,,,,,,,,,,,,,,,,,,,,,,,,,,,,,,,,,,,,
1606521677.316438,42.000000,0.000000,4239.102539,4285.000000,4228.974121,3876.666748,4171.538574,4260.512695,4221.025879,4201.025879,4222.179688,4278.077148,4260.384766,4241.538574,4255.384766,4239.358887,0.000000,3.000000,,,,0.000000,4.000000,4.000000,4.000000,4.000000,4.000000,4.000000,4.000000,4.000000,4.000000,4.000000,4.000000,4.000000,4.000000,4.000000,100.000000,,,,,,,,,,,,,,,,,,,,,,,,,,,,,,,,,,,,,,,,,,,,,,,,,,,,,,,,,,,,,,,,,,,,,,,,,,,,,,,,,,
1606521677.324433,43.000000,0.000000,4245.128418,4287.563965,4235.256348,3868.333252,4174.743652,4263.974121,4224.615234,4213.974121,4233.717773,4286.666504,4266.922852,4251.538574,4260.384766,4245.128418,0.000000,3.000000,,,,0.000000,4.000000,4.000000,4.000000,4.000000,4.000000,4.000000,4.000000,4.000000,4.000000,4.000000,4.000000,4.000000,4.000000,4.000000,100.000000,,,,,,,,,,,,,,,,,,,,,,,,,,,,,,,,,,,,,,,,,,,,,,,,,,,,,,,,,,,,,,,,,,,,,,,,,,,,,,,,,,
1606521677.332329,44.000000,0.000000,4256.538574,4302.179688,4248.846191,3856.025635,4206.410156,4261.922852,4242.948730,4223.589844,4246.794922,4306.410156,4273.846191,4255.256348,4270.256348,4261.282227,0.000000,3.000000,,,,0.000000,4.000000,4.000000,4.000000,4.000000,4.000000,4.000000,4.000000,4.000000,4.000000,4.000000,4.000000,4.000000,4.000000,4.000000,100.000000,11.000000,0.000000,0.691675,-0.387878,-0.586548,-0.164612,0.935561,-0.352544,-0.005371,-37.982758,-120.079346,11.663997,,,,,,,,,,,,,,,,,,,,,,,,,,,,,,,,,,,,,,,,,,,,,,,,,,,,,,,,,,,,,,,,,,,,,,
1606521677.340225,45.000000,0.000000,4244.743652,4274.615234,4236.666504,3828.461426,4201.794922,4263.846191,4236.666504,4207.692383,4225.384766,4286.282227,4255.384766,4243.846191,4249.743652,4244.102539,0.000000,3.000000,,,,0.000000,4.000000,4.000000,4.000000,4.000000,4.000000,4.000000,4.000000,4.000000,4.000000,4.000000,4.000000,4.000000,4.000000,4.000000,100.000000,,,,,,,,,,,,,,,,,,,,,,,,,,,,,,,,,,,,,,,,,,,,,,,,,,,,,,,,,,,,,,,,,,,,,,,,,,,,,,,,,,
1606521677.348120,46.000000,0.000000,4241.794922,4261.538574,4227.563965,3810.384521,4170.128418,4251.922852,4216.282227,4196.153809,4219.487305,4275.641113,4252.820313,4242.051270,4242.820313,4234.743652,0.000000,3.000000,,,,0.000000,4.000000,4.000000,4.000000,4.000000,4.000000,4.000000,4.000000,4.000000,4.000000,4.000000,4.000000,4.000000,4.000000,4.000000,100.000000,,,,,,,,,,,,,,,,,,,,,,,,,,,,,,,,,,,,,,,,,,,,,,,,,,,,,,,,,,,,,,,,,,,,,,,,,,,,,,,,,,
1606521677.356116,47.000000,0.000000,4252.307617,4279.358887,4236.282227,3808.718018,4169.230957,4239.102539,4220.384766,4207.051270,4238.077148,4290.128418,4271.538574,4245.641113,4259.230957,4251.538574,0.000000,3.000000,,,,0.000000,4.000000,4.000000,4.000000,4.000000,4.000000,4.000000,4.000000,4.000000,4.000000,4.000000,4.000000,4.000000,4.000000,4.000000,100.000000,,,,,,,,,,,,,,,,,,,,,,,,,,,,,,,,,,,,,,,,,,,,,,,,,,,,,,,,,,,,,,,,,,,,,,,,,,,,,,,,,,
1606521677.364012,48.000000,0.000000,4251.025879,4263.717773,4241.282227,3795.512939,4178.846191,4247.948730,4235.128418,4226.922852,4246.538574,4292.948730,4266.153809,4241.410156,4254.615234,4250.769043,0.000000,3.000000,,,,0.000000,4.000000,4.000000,4.000000,4.000000,4.000000,4.000000,4.000000,4.000000,4.000000,4.000000,4.000000,4.000000,4.000000,4.000000,100.000000,12.000000,0.000000,0.692188,-0.389282,-0.583862,-0.168640,0.956069,-0.344244,0.005371,-35.739681,-120.228882,11.813535,,,,,,,,,,,,,,,,,,,,,,,,,,,,,,,,,,,,,,,,,,,,,,,,,,,,,,,,,,,,,,,,,,,,,,
1606521677.371907,49.000000,0.000000,4252.307617,4247.051270,4246.538574,3776.666748,4162.692383,4256.538574,4239.743652,4232.436035,4246.922852,4292.051270,4255.512695,4242.692383,4246.153809,4246.282227,0.000000,3.000000,,,,0.000000,4.000000,4.000000,4.000000,4.000000,4.000000,4.000000,4.000000,4.000000,4.000000,4.000000,4.000000,4.000000,4.000000,4.000000,100.000000,,,,,,,,,,,,,,,,,,,,,,,,,,,,,,,,,,,,,,,,,,,,,,,,,,,,,,,,,,,,,,,,,,,,,,,,,,,,,,,,,,
1606521677.379603,50.000000,0.000000,4264.871582,4267.051270,4262.307617,3774.615479,4167.051270,4265.128418,4248.077148,4219.102539,4243.333496,4300.512695,4260.256348,4259.230957,4246.538574,4252.948730,0.000000,3.000000,,,,0.000000,4.000000,4.000000,4.000000,4.000000,4.000000,4.000000,4.000000,4.000000,4.000000,4.000000,4.000000,4.000000,4.000000,4.000000,100.000000,,,,,,,,,,,,,,,,,,,,,,,,,,,,,,,,,,,,,,,,,,,,,,,,,,,,,,,,,,,,,,,,,,,,,,,,,,,,,,,,,,
1606521677.387399,51.000000,0.000000,4263.333496,4270.897461,4265.769043,3769.615479,4184.102539,4272.179688,4252.948730,4214.230957,4240.512695,4300.769043,4260.641113,4267.051270,4240.384766,4249.615234,0.000000,3.000000,,,,0.000000,4.000000,4.000000,4.000000,4.000000,4.000000,4.000000,4.000000,4.000000,4.000000,4.000000,4.000000,4.000000,4.000000,4.000000,100.000000,,,,,,,,,,,,,,,,,,,,,,,,,,,,,,,,,,,,,,,,,,,,,,,,,,,,,,,,,,,,,,,,,,,,,,,,,,,,,,,,,,
1606521677.395095,52.000000,0.000000,4249.358887,4251.282227,4254.230957,3749.487061,4161.282227,4247.820313,4242.179688,4222.692383,4241.282227,4292.179688,4261.538574,4250.897461,4238.205078,4246.922852,0.000000,3.000000,,,,0.000000,4.000000,4.000000,4.000000,4.000000,4.000000,4.000000,4.000000,4.000000,4.000000,4.000000,4.000000,4.000000,4.000000,4.000000,100.000000,13.000000,0.000000,0.692972,-0.389221,-0.582153,-0.171448,0.959976,-0.372076,0.019043,-35.291065,-120.677498,9.869535,,,,,,,,,,,,,,,,,,,,,,,,,,,,,,,,,,,,,,,,,,,,,,,,,,,,,,,,,,,,,,,,,,,,,,
1606521677.402791,53.000000,0.000000,4244.871582,4247.692383,4247.563965,3730.769287,4127.436035,4217.563965,4232.820313,4214.743652,4233.717773,4284.102539,4263.846191,4234.871582,4238.589844,4251.666504,0.000000,3.000000,,,,0.000000,4.000000,4.000000,4.000000,4.000000,4.000000,4.000000,4.000000,4.000000,4.000000,4.000000,4.000000,4.000000,4.000000,4.000000,100.000000,,,,,,,,,,,,,,,,,,,,,,,,,,,,,,,,,,,,,,,,,,,,,,,,,,,,,,,,,,,,,,,,,,,,,,,,,,,,,,,,,,
1606521677.410487,54.000000,0.000000,4248.333496,4252.820313,4249.102539,3719.871826,4133.077148,4232.436035,4235.384766,4200.897461,4230.897461,4278.589844,4262.948730,4234.871582,4232.563965,4252.948730,0.000000,3.000000,,,,0.000000,4.000000,4.000000,4.000000,4.000000,4.000000,4.000000,4.000000,4.000000,4.000000,4.000000,4.000000,4.000000,4.000000,4.000000,100.000000,,,,,,,,,,,,,16.066946,7.131073,1.994082,0.802155,0.890121,32.834694,12.387438,3.674816,0.814641,1.818724,15.541414,6.495103,2.065035,1.092092,1.038556,632.821716,5.603110,2.649270,1.591931,0.709565,16.620443,6.895727,3.478675,1.673568,3.838200,14.892992,6.888460,1.564137,0.863274,0.750759,14.402156,6.914915,1.957359,0.935396,1.050395,14.030422,6.544120,2.359090,1.327194,0.648659,11.488856,5.394713,1.354036,0.846243,0.705628,21.568569,6.630874,2.623459,1.732102,1.595424,18.571285,8.217543,2.247697,1.018939,0.932479,14.024636,5.805213,2.076480,0.888803,0.703419,56.623325,13.751796,3.440818,1.186599,1.098671,23.243340,9.344351,2.457044,0.837790,0.929170
1606521677.418283,55.000000,0.000000,4245.897461,4243.589844,4247.051270,3707.307617,4157.179688,4262.179688,4239.358887,4207.820313,4235.897461,4285.769043,4262.307617,4237.179688,4231.666504,4250.000000,0.000000,3.000000,,,,0.000000,4.000000,4.000000,4.000000,4.000000,4.000000,4.000000,4.000000,4.000000,4.000000,4.000000,4.000000,4.000000,4.000000,4.000000,100.000000,,,,,,,,,,,,,,,,,,,,,,,,,,,,,,,,,,,,,,,,,,,,,,,,,,,,,,,,,,,,,,,,,,,,,,,,,,,,,,,,,,
1606521677.426178,56.000000,0.000000,4238.333496,4216.153809,4237.692383,3686.538574,4148.461426,4244.102539,4235.128418,4215.384766,4225.512695,4288.077148,4253.717773,4233.333496,4224.102539,4241.153809,0.000000,3.000000,,,,0.000000,4.000000,4.000000,4.000000,4.000000,4.000000,4.000000,4.000000,4.000000,4.000000,4.000000,4.000000,4.000000,4.000000,4.000000,100.000000,14.000000,0.000000,0.693179,-0.390137,-0.580750,-0.173279,0.968765,-0.387701,0.028809,-35.889221,-121.275658,10.019073,,,,,,,,,,,,,,,,,,,,,,,,,,,,,,,,,,,,,,,,,,,,,,,,,,,,,,,,,,,,,,,,,,,,,,
1606521677.434074,57.000000,0.000000,4231.025879,4179.743652,4223.589844,3651.281982,4116.153809,4210.256348,4222.436035,4195.769043,4198.589844,4250.512695,4225.897461,4221.794922,4190.128418,4221.538574,0.000000,3.000000,,,,0.000000,4.000000,4.000000,4.000000,4.000000,4.000000,4.000000,4.000000,4.000000,4.000000,4.000000,4.000000,4.000000,4.000000,4.000000,100.000000,,,,,,,,,,,,,,,,,,,,,,,,,,,,,,,,,,,,,,,,,,,,,,,,,,,,,,,,,,,,,,,,,,,,,,,,,,,,,,,,,,
1606521677.441970,58.000000,0.000000,4227.436035,4159.102539,4208.461426,3609.871826,4087.692383,4199.871582,4204.871582,4167.051270,4175.128418,4200.384766,4201.410156,4203.333496,4158.205078,4198.205078,0.000000,3.000000,,,,0.000000,4.000000,4.000000,4.000000,4.000000,4.000000,4.000000,4.000000,4.000000,4.000000,4.000000,4.000000,4.000000,4.000000,4.000000,100.000000,,,,,,,,,,,,,,,,,,,,,,,,,,,,,,,,,,,,,,,,,,,,,,,,,,,,,,,,,,,,,,,,,,,,,,,,,,,,,,,,,,
1606521677.449765,59.000000,0.000000,4232.692383,4161.153809,4199.230957,3588.333252,4068.333252,4178.846191,4181.794922,4158.717773,4173.461426,4197.820313,4199.358887,4195.000000,4147.692383,4185.769043,0.000000,3.000000,,,,0.000000,4.000000,4.000000,4.000000,4.000000,4.000000,4.000000,4.000000,4.000000,4.000000,4.000000,4.000000,4.000000,4.000000,4.000000,100.000000,,,,,,,,,,,,,,,,,,,,,,,,,,,,,,,,,,,,,,,,,,,,,,,,,,,,,,,,,,,,,,,,,,,,,,,,,,,,,,,,,,
1606521677.457461,60.000000,0.000000,4232.051270,4145.384766,4186.282227,3567.435791,4031.281982,4142.051270,4157.179688,4150.641113,4174.871582,4203.589844,4181.922852,4186.410156,4124.615234,4171.025879,0.000000,3.000000,,,,0.000000,4.000000,4.000000,4.000000,4.000000,4.000000,4.000000,4.000000,4.000000,4.000000,4.000000,4.000000,4.000000,4.000000,4.000000,100.000000,15.000000,0.000000,0.693452,-0.391052,-0.578979,-0.176025,0.942397,-0.389654,0.022461,-35.889221,-120.079346,11.215381,,,,,,,,,,,,,,,,,,,,,,,,,,,,,,,,,,,,,,,,,,,,,,,,,,,,,,,,,,,,,,,,,,,,,,
1606521677.465157,61.000000,0.000000,4214.358887,4100.897461,4168.205078,3531.281982,3997.307617,4125.256348,4140.256348,4121.282227,4150.384766,4166.282227,4139.615234,4159.743652,4078.718018,4140.128418,0.000000,3.000000,,,,0.000000,4.000000,4.000000,4.000000,4.000000,4.000000,4.000000,4.000000,4.000000,4.000000,4.000000,4.000000,4.000000,4.000000,4.000000,100.000000,,,,,,,,,,,,,,,,,,,,,,,,,,,,,,,,,,,,,,,,,,,,,,,,,,,,,,,,,,,,,,,,,,,,,,,,,,,,,,,,,,
1606521677.472853,62.000000,0.000000,4208.461426,4079.358887,4161.666504,3501.794922,4001.153809,4135.641113,4138.077148,4106.025879,4127.436035,4138.589844,4124.358887,4146.666504,4063.718018,4125.384766,0.000000,3.000000,,,,0.000000,4.000000,4.000000,4.000000,4.000000,4.000000,4.000000,4.000000,4.000000,4.000000,4.000000,4.000000,4.000000,4.000000,4.000000,100.000000,,,,,,,,,,,,,,,,,,,,,,,,,,,,,,,,,,,,,,,,,,,,,,,,,,,,,,,,,,,,,,,,,,,,,,,,,,,,,,,,,,
1606521677.480649,63.000000,0.000000,4228.205078,4092.564209,4167.563965,3493.205078,4000.641113,4135.512695,4137.563965,4124.743652,4137.436035,4151.538574,4148.205078,4161.794922,4101.153809,4149.230957,0.000000,3.000000,,,,0.000000,4.000000,4.000000,4.000000,4.000000,4.000000,4.000000,4.000000,4.000000,4.000000,4.000000,4.000000,4.000000,4.000000,4.000000,100.000000,,,,,,,,,,,,,,,,,,,,,,,,,,,,,,,,,,,,,,,,,,,,,,,,,,,,,,,,,,,,,,,,,,,,,,,,,,,,,,,,,,
1606521677.488345,64.000000,0.000000,4246.538574,4102.436035,4171.666504,3490.769287,3984.358887,4116.282227,4127.179688,4126.025879,4143.077148,4158.717773,4167.692383,4175.769043,4145.769043,4178.589844,3414.000000,3.000000,,,,0.000000,4.000000,4.000000,4.000000,4.000000,4.000000,4.000000,4.000000,4.000000,4.000000,4.000000,4.000000,4.000000,4.000000,4.000000,100.000000,16.000000,0.000000,0.694214,-0.388611,-0.579895,-0.175415,0.933608,-0.417975,0.021485,-36.337833,-121.574730,10.019073,,,,,,,,,,,,,,,,,,,,,,,,,,,,,,,,,,,,,,,,,,,,,,,,,,,,,,,,,,,,,,,,,,,,,,
1606521677.496040,65.000000,0.000000,4251.538574,4100.769043,4168.333496,3474.358887,3973.205078,4103.333496,4115.641113,4092.307617,4121.282227,4140.897461,4170.897461,4177.820313,4168.717773,4194.487305,3576.000000,3.000000,,,,0.000000,4.000000,4.000000,4.000000,4.000000,4.000000,4.000000,4.000000,4.000000,4.000000,4.000000,4.000000,4.000000,4.000000,4.000000,100.000000,,,,,,,,,,,,,,,,,,,,,,,,,,,,,,,,,,,,,,,,,,,,,,,,,,,,,,,,,,,,,,,,,,,,,,,,,,,,,,,,,,
1606521677.503736,66.000000,0.000000,4263.589844,4099.871582,4172.820313,3455.769287,3963.718018,4101.922852,4116.410156,4078.974365,4114.615234,4134.230957,4182.307617,4186.794922,4191.025879,4215.897461,3369.000000,3.000000,,,,0.000000,4.000000,4.000000,4.000000,4.000000,4.000000,4.000000,4.000000,4.000000,4.000000,4.000000,4.000000,4.000000,4.000000,4.000000,100.000000,,,,,,,,,,,,,,,,,,,,,,,,,,,,,,,,,,,,,,,,,,,,,,,,,,,,,,,,,,,,,,,,,,,,,,,,,,,,,,,,,,
1606521677.511532,67.000000,0.000000,4278.974121,4105.897461,4186.410156,3452.564209,3954.871826,4102.563965,4118.717773,4095.128174,4128.846191,4154.871582,4196.282227,4202.436035,4217.307617,4238.589844,3588.000000,3.000000,,,,0.000000,4.000000,4.000000,4.000000,4.000000,4.000000,4.000000,4.000000,4.000000,4.000000,4.000000,4.000000,4.000000,4.000000,4.000000,100.000000,,,,,,,,,,,,,,,,,,,,,,,,,,,,,,,,,,,,,,,,,,,,,,,,,,,,,,,,,,,,,,,,,,,,,,,,,,,,,,,,,,
1606521677.519228,68.000000,0.000000,4275.000000,4107.820313,4184.743652,3448.461426,3958.205078,4105.384766,4111.025879,4096.538574,4127.820313,4160.769043,4193.846191,4199.871582,4216.410156,4238.333496,3620.000000,3.000000,,,,0.000000,4.000000,4.000000,4.000000,4.000000,4.000000,4.000000,4.000000,4.000000,4.000000,4.000000,4.000000,4.000000,4.000000,4.000000,100.000000,17.000000,0.000000,0.694499,-0.388550,-0.579224,-0.176636,0.939467,-0.435554,0.020996,-36.038757,-120.677498,9.570458,,,,,,,,,,,,,,,,,,,,,,,,,,,,,,,,,,,,,,,,,,,,,,,,,,,,,,,,,,,,,,,,,,,,,,
1606521677.527123,69.000000,0.000000,4256.153809,4093.076904,4164.743652,3434.230713,3957.692383,4108.461426,4106.025879,4083.974365,4114.743652,4137.179688,4178.717773,4180.897461,4188.333496,4216.410156,3505.000000,3.000000,,,,0.000000,4.000000,4.000000,4.000000,4.000000,4.000000,4.000000,4.000000,4.000000,4.000000,4.000000,4.000000,4.000000,4.000000,4.000000,100.000000,,,,,,,,,,,,,,,,,,,,,,,,,,,,,,,,,,,,,,,,,,,,,,,,,,,,,,,,,,,,,,,,,,,,,,,,,,,,,,,,,,
1606521677.535019,70.000000,0.000000,4251.153809,4085.641113,4163.461426,3431.153809,3946.666748,4103.461426,4112.051270,4089.871826,4119.358887,4136.794922,4178.333496,4180.384766,4182.436035,4206.153809,3481.000000,3.000000,,,,0.000000,4.000000,4.000000,4.000000,4.000000,4.000000,4.000000,4.000000,4.000000,4.000000,4.000000,4.000000,4.000000,4.000000,4.000000,100.000000,,,,,,,,,,,,,13.295532,8.051622,2.587967,0.796605,0.965405,32.897751,16.789917,4.726535,0.954659,2.018098,13.580127,7.039007,2.574189,1.125643,1.181431,1003.531372,6.334382,3.266488,1.929187,0.700680,22.639490,8.434816,4.461721,1.637979,4.037911,18.023588,8.765400,1.867752,0.782746,0.817332,17.872942,7.800161,2.331164,0.981558,1.086225,18.786739,7.355217,2.775290,1.498016,0.670655,14.680682,6.159612,1.717741,1.067437,0.664576,20.908325,7.595600,2.792539,1.614228,1.176551,17.185261,9.252789,3.184397,1.004645,0.929439,11.717941,6.450332,2.643022,0.853820,0.759963,44.715965,16.247261,4.719895,1.101433,1.114565,19.180189,12.293975,3.409208,0.849308,0.946465
1606521677.543015,71.000000,0.000000,4271.282227,4105.897461,4193.077148,3453.333252,3966.666748,4111.153809,4135.000000,4118.461426,4142.563965,4171.153809,4208.461426,4208.461426,4212.692383,4234.102539,3361.000000,3.000000,,,,0.000000,4.000000,4.000000,4.000000,4.000000,4.000000,4.000000,4.000000,4.000000,4.000000,4.000000,4.000000,4.000000,4.000000,4.000000,100.000000,,,,,,,,,,,,,,,,,,,,,,,,,,,,,,,,,,,,,,,,,,,,,,,,,,,,,,,,,,,,,,,,,,,,,,,,,,,,,,,,,,
1606521677.550910,72.000000,0.000000,4280.641113,4115.384766,4204.615234,3461.538574,3982.051270,4124.358887,4151.538574,4135.384766,4151.153809,4179.230957,4220.000000,4220.641113,4216.538574,4252.307617,3235.000000,3.000000,,,,0.000000,4.000000,4.000000,4.000000,4.000000,4.000000,4.000000,4.000000,4.000000,4.000000,4.000000,4.000000,4.000000,4.000000,4.000000,100.000000,18.000000,0.000000,0.694564,-0.388855,-0.578735,-0.177307,0.925795,-0.424323,0.015137,-37.534142,-121.275658,11.215381,,,,,,,,,,,,,,,,,,,,,,,,,,,,,,,,,,,,,,,,,,,,,,,,,,,,,,,,,,,,,,,,,,,,,,
1606521677.558606,73.000000,0.000000,4264.358887,4101.794922,4183.974121,3441.410156,3961.025635,4125.256348,4141.922852,4127.436035,4141.410156,4163.717773,4202.820313,4200.384766,4192.563965,4230.256348,3566.000000,3.000000,,,,0.000000,4.000000,4.000000,4.000000,4.000000,4.000000,4.000000,4.000000,4.000000,4.000000,4.000000,4.000000,4.000000,4.000000,4.000000,100.000000,,,,,,,,,,,,,,,,,,,,,,,,,,,,,,,,,,,,,,,,,,,,,,,,,,,,,,,,,,,,,,,,,,,,,,,,,,,,,,,,,,
1606521677.566302,74.000000,0.000000,4262.436035,4111.153809,4186.794922,3440.769287,3969.230713,4138.974121,4142.948730,4136.410156,4148.717773,4179.487305,4216.794922,4198.461426,4204.743652,4228.589844,3602.000000,3.000000,,,,0.000000,4.000000,4.000000,4.000000,4.000000,4.000000,4.000000,4.000000,4.000000,4.000000,4.000000,4.000000,4.000000,4.000000,4.000000,100.000000,,,,,,,,,,,,,,,,,,,,,,,,,,,,,,,,,,,,,,,,,,,,,,,,,,,,,,,,,,,,,,,,,,,,,,,,,,,,,,,,,,
1606521677.573898,75.000000,0.000000,4270.256348,4126.025879,4204.230957,3451.281982,3998.076904,4155.512695,4161.410156,4154.487305,4162.307617,4193.974121,4237.179688,4209.230957,4219.358887,4247.179688,3570.000000,3.000000,,,,0.000000,4.000000,4.000000,4.000000,4.000000,4.000000,4.000000,4.000000,4.000000,4.000000,4.000000,4.000000,4.000000,4.000000,4.000000,100.000000,,,,,,,,,,,,,,,,,,,,,,,,,,,,,,,,,,,,,,,,,,,,,,,,,,,,,,,,,,,,,,,,,,,,,,,,,,,,,,,,,,
1606521677.581593,76.000000,0.000000,4251.025879,4106.025879,4184.230957,3432.564209,3978.205078,4146.922852,4156.538574,4143.077148,4151.922852,4172.051270,4206.794922,4191.410156,4183.205078,4226.410156,3537.000000,3.000000,,,,0.000000,4.000000,4.000000,4.000000,4.000000,4.000000,4.000000,4.000000,4.000000,4.000000,4.000000,4.000000,4.000000,4.000000,4.000000,100.000000,19.000000,0.000000,0.694463,-0.390137,-0.577637,-0.178467,0.956558,-0.392584,0.031250,-36.337833,-119.331657,10.019073,,,,,,,,,,,,,,,,,,,,,,,,,,,,,,,,,,,,,,,,,,,,,,,,,,,,,,,,,,,,,,,,,,,,,,
1606521677.589289,77.000000,0.000000,4239.358887,4090.384521,4173.974121,3418.461426,3947.948730,4135.000000,4146.922852,4143.205078,4154.743652,4172.948730,4186.153809,4185.128418,4161.794922,4207.563965,3238.000000,3.000000,,,,0.000000,4.000000,4.000000,4.000000,4.000000,4.000000,4.000000,4.000000,4.000000,4.000000,4.000000,4.000000,4.000000,4.000000,4.000000,100.000000,,,,,,,,,,,,,,,,,,,,,,,,,,,,,,,,,,,,,,,,,,,,,,,,,,,,,,,,,,,,,,,,,,,,,,,,,,,,,,,,,,
